Channel              :,CH1
Frequency            :,  ?
Period               :,  ?
PK-PK                :,93.75mV
Average              :,-184.8mV
Vertical pos         :,1.000000mV
Probe attenuation    :,1X
Voltage per ADC value:,0.312500mV
Time interval        :,4.00000uS

index,CH1_Voltage(mV)
1,-142.500000
2,-142.500000
3,-142.500000
4,-142.500000
5,-142.500000
6,-142.500000
7,-142.500000
8,-142.500000
9,-48.750000
10,-142.500000
11,-142.500000
12,-142.500000
13,-142.500000
14,-142.500000
15,-142.500000
16,-142.500000
17,-142.500000
18,-142.500000
19,-142.500000
20,-142.500000
21,-142.500000
22,-142.500000
23,-142.500000
24,-142.500000
25,-142.500000
26,-142.500000
27,-142.500000
28,-142.500000
29,-142.500000
30,-142.500000
31,-142.500000
32,-142.500000
33,-142.500000
34,-142.500000
35,-142.500000
36,-142.500000
37,-142.500000
38,-142.500000
39,-142.500000
40,-142.500000
41,-142.500000
42,-142.500000
43,-142.500000
44,-142.500000
45,-142.500000
46,-142.500000
47,-142.500000
48,-142.500000
49,-142.500000
50,-142.500000
51,-142.500000
52,-142.500000
53,-142.500000
54,-142.500000
55,-142.500000
56,-142.500000
57,-142.500000
58,-142.500000
59,-142.500000
60,-142.500000
61,-142.500000
62,-142.500000
63,-142.500000
64,-142.500000
65,-142.500000
66,-142.500000
67,-142.500000
68,-142.500000
69,-142.500000
70,-142.500000
71,-142.500000
72,-142.500000
73,-142.500000
74,-142.500000
75,-142.500000
76,-142.500000
77,-142.500000
78,-142.500000
79,-142.500000
80,-142.500000
81,-142.500000
82,-142.500000
83,-142.500000
84,-142.500000
85,-142.500000
86,-142.500000
87,-142.500000
88,-142.500000
89,-142.500000
90,-142.500000
91,-142.500000
92,-142.500000
93,-142.500000
94,-142.500000
95,-142.500000
96,-142.500000
97,-142.500000
98,-142.500000
99,-142.500000
100,-142.500000
101,-142.500000
102,-142.500000
103,-142.500000
104,-142.500000
105,-142.500000
106,-142.500000
107,-142.500000
108,-142.500000
109,-142.500000
110,-142.500000
111,-142.500000
112,-142.500000
113,-142.500000
114,-142.500000
115,-142.500000
116,-142.500000
117,-142.500000
118,-142.500000
119,-142.500000
120,-142.500000
121,-142.500000
122,-142.500000
123,-142.500000
124,-142.500000
125,-142.500000
126,-142.500000
127,-142.500000
128,-142.500000
129,-142.500000
130,-142.500000
131,-142.500000
132,-142.500000
133,-142.500000
134,-142.500000
135,-142.500000
136,-142.500000
137,-142.500000
138,-142.500000
139,-142.500000
140,-142.500000
141,-142.500000
142,-142.500000
143,-142.500000
144,-142.500000
145,-142.500000
146,-142.500000
147,-142.500000
148,-142.500000
149,-142.500000
150,-142.500000
151,-142.500000
152,-142.500000
153,-142.500000
154,-142.500000
155,-142.500000
156,-142.500000
157,-142.500000
158,-142.500000
159,-142.500000
160,-142.500000
161,-142.500000
162,-142.500000
163,-142.500000
164,-142.500000
165,-142.500000
166,-142.500000
167,-142.500000
168,-142.500000
169,-142.500000
170,-142.500000
171,-142.500000
172,-142.500000
173,-142.500000
174,-142.500000
175,-142.500000
176,-142.500000
177,-142.500000
178,-142.500000
179,-142.500000
180,-142.500000
181,-142.500000
182,-142.500000
183,-142.500000
184,-142.500000
185,-142.500000
186,-142.500000
187,-142.500000
188,-142.500000
189,-142.500000
190,-142.500000
191,-142.500000
192,-142.500000
193,-142.500000
194,-142.500000
195,-142.500000
196,-142.500000
197,-142.500000
198,-142.500000
199,-142.500000
200,-142.500000
201,-142.500000
202,-142.500000
203,-142.500000
204,-142.500000
205,-142.500000
206,-142.500000
207,-142.500000
208,-142.500000
209,-142.500000
210,-142.500000
211,-142.500000
212,-142.500000
213,-142.500000
214,-142.500000
215,-142.500000
216,-142.500000
217,-142.500000
218,-142.500000
219,-142.500000
220,-142.500000
221,-142.500000
222,-142.500000
223,-142.500000
224,-142.500000
225,-142.500000
226,-142.500000
227,-142.500000
228,-142.500000
229,-142.500000
230,-142.500000
231,-142.500000
232,-142.500000
233,-142.500000
234,-142.500000
235,-142.500000
236,-142.500000
237,-142.500000
238,-142.500000
239,-142.500000
240,-142.500000
241,-142.500000
242,-142.500000
243,-142.500000
244,-142.500000
245,-142.500000
246,-142.500000
247,-142.500000
248,-142.500000
249,-142.500000
250,-142.500000
251,-142.500000
252,-142.500000
253,-142.500000
254,-142.500000
255,-142.500000
256,-142.500000
257,-142.500000
258,-142.500000
259,-142.500000
260,-142.500000
261,-142.500000
262,-142.500000
263,-142.500000
264,-142.500000
265,-142.500000
266,-142.500000
267,-142.500000
268,-142.500000
269,-142.500000
270,-142.500000
271,-142.500000
272,-142.500000
273,-142.500000
274,-142.500000
275,-142.500000
276,-142.500000
277,-142.500000
278,-142.500000
279,-142.500000
280,-142.500000
281,-142.500000
282,-142.500000
283,-142.500000
284,-142.500000
285,-142.500000
286,-142.500000
287,-142.500000
288,-142.500000
289,-142.500000
290,-142.500000
291,-142.500000
292,-142.500000
293,-142.500000
294,-142.500000
295,-142.500000
296,-142.500000
297,-142.500000
298,-142.500000
299,-142.500000
300,-142.500000
301,-142.500000
302,-142.500000
303,-142.500000
304,-142.500000
305,-142.500000
306,-142.500000
307,-142.500000
308,-142.500000
309,-142.500000
310,-142.500000
311,-142.500000
312,-142.500000
313,-142.500000
314,-142.500000
315,-142.500000
316,-142.500000
317,-142.500000
318,-142.500000
319,-142.500000
320,-142.500000
321,-142.500000
322,-142.500000
323,-142.500000
324,-142.500000
325,-142.500000
326,-142.500000
327,-142.500000
328,-142.500000
329,-142.500000
330,-142.500000
331,-142.500000
332,-142.500000
333,-142.500000
334,-142.500000
335,-142.500000
336,-142.500000
337,-142.500000
338,-142.500000
339,-142.500000
340,-142.500000
341,-142.500000
342,-142.500000
343,-142.500000
344,-142.500000
345,-142.500000
346,-142.500000
347,-142.500000
348,-142.500000
349,-142.500000
350,-142.500000
351,-142.500000
352,-142.500000
353,-142.500000
354,-142.500000
355,-142.500000
356,-142.500000
357,-142.500000
358,-142.500000
359,-142.500000
360,-142.500000
361,-142.500000
362,-142.500000
363,-142.500000
364,-142.500000
365,-142.500000
366,-142.500000
367,-142.500000
368,-142.500000
369,-142.500000
370,-142.500000
371,-142.500000
372,-142.500000
373,-142.500000
374,-142.500000
375,-142.500000
376,-142.500000
377,-142.500000
378,-142.500000
379,-142.500000
380,-142.500000
381,-142.500000
382,-142.500000
383,-142.500000
384,-142.500000
385,-142.500000
386,-142.500000
387,-142.500000
388,-142.500000
389,-142.500000
390,-142.500000
391,-142.500000
392,-142.500000
393,-142.500000
394,-142.500000
395,-142.500000
396,-142.500000
397,-142.500000
398,-142.500000
399,-142.500000
400,-142.500000
401,-142.500000
402,-142.500000
403,-142.500000
404,-142.500000
405,-142.500000
406,-142.500000
407,-142.500000
408,-142.500000
409,-142.500000
410,-142.500000
411,-142.500000
412,-142.500000
413,-142.500000
414,-142.500000
415,-142.500000
416,-142.500000
417,-142.500000
418,-48.750000
419,-142.500000
420,-142.500000
421,-142.500000
422,-142.500000
423,-142.500000
424,-142.500000
425,-142.500000
426,-142.500000
427,-142.500000
428,-142.500000
429,-142.500000
430,-142.500000
431,-142.500000
432,-142.500000
433,-142.500000
434,-142.500000
435,-142.500000
436,-142.500000
437,-142.500000
438,-142.500000
439,-142.500000
440,-142.500000
441,-142.500000
442,-142.500000
443,-142.500000
444,-142.500000
445,-142.500000
446,-142.500000
447,-142.500000
448,-142.500000
449,-142.500000
450,-142.500000
451,-142.500000
452,-142.500000
453,-142.500000
454,-142.500000
455,-142.500000
456,-142.500000
457,-142.500000
458,-142.500000
459,-142.500000
460,-142.500000
461,-142.500000
462,-142.500000
463,-142.500000
464,-142.500000
465,-142.500000
466,-142.500000
467,-142.500000
468,-142.500000
469,-142.500000
470,-142.500000
471,-142.500000
472,-142.500000
473,-142.500000
474,-142.500000
475,-142.500000
476,-142.500000
477,-142.500000
478,-142.500000
479,-142.500000
480,-142.500000
481,-142.500000
482,-142.500000
483,-142.500000
484,-142.500000
485,-142.500000
486,-142.500000
487,-142.500000
488,-142.500000
489,-142.500000
490,-142.500000
491,-142.500000
492,-142.500000
493,-142.500000
494,-142.500000
495,-142.500000
496,-142.500000
497,-142.500000
498,-142.500000
499,-142.500000
500,-142.500000
501,-142.500000
502,-142.500000
503,-142.500000
504,-142.500000
505,-142.500000
506,-142.500000
507,-142.500000
508,-142.500000
509,-142.500000
510,-142.500000
511,-142.500000
512,-142.500000
513,-142.500000
514,-142.500000
515,-142.500000
516,-142.500000
517,-142.500000
518,-142.500000
519,-142.500000
520,-142.500000
521,-142.500000
522,-142.500000
523,-142.500000
524,-142.500000
525,-142.500000
526,-142.500000
527,-142.500000
528,-142.500000
529,-142.500000
530,-142.500000
531,-142.500000
532,-142.500000
533,-142.500000
534,-142.500000
535,-142.500000
536,-142.500000
537,-142.500000
538,-142.500000
539,-142.500000
540,-142.500000
541,-142.500000
542,-142.500000
543,-142.500000
544,-142.500000
545,-142.500000
546,-142.500000
547,-142.500000
548,-142.500000
549,-142.500000
550,-142.500000
551,-142.500000
552,-142.500000
553,-142.500000
554,-142.500000
555,-142.500000
556,-142.500000
557,-142.500000
558,-142.500000
559,-142.500000
560,-142.500000
561,-142.500000
562,-142.500000
563,-142.500000
564,-142.500000
565,-142.500000
566,-142.500000
567,-142.500000
568,-142.500000
569,-142.500000
570,-142.500000
571,-142.500000
572,-142.500000
573,-142.500000
574,-142.500000
575,-142.500000
576,-142.500000
577,-142.500000
578,-142.500000
579,-142.500000
580,-142.500000
581,-142.500000
582,-142.500000
583,-142.500000
584,-142.500000
585,-142.500000
586,-142.500000
587,-142.500000
588,-142.500000
589,-142.500000
590,-142.500000
591,-142.500000
592,-142.500000
593,-142.500000
594,-142.500000
595,-142.500000
596,-142.500000
597,-142.500000
598,-142.500000
599,-142.500000
600,-142.500000
601,-142.500000
602,-142.500000
603,-142.500000
604,-142.500000
605,-142.500000
606,-142.500000
607,-142.500000
608,-142.500000
609,-142.500000
610,-142.500000
611,-142.500000
612,-142.500000
613,-142.500000
614,-142.500000
615,-142.500000
616,-142.500000
617,-142.500000
618,-142.500000
619,-142.500000
620,-142.500000
621,-142.500000
622,-142.500000
623,-142.500000
624,-142.500000
625,-142.500000
626,-142.500000
627,-142.500000
628,-142.500000
629,-142.500000
630,-142.500000
631,-142.500000
632,-142.500000
633,-142.500000
634,-142.500000
635,-142.500000
636,-142.500000
637,-142.500000
638,-142.500000
639,-142.500000
640,-142.500000
641,-142.500000
642,-142.500000
643,-142.500000
644,-142.500000
645,-142.500000
646,-142.500000
647,-142.500000
648,-142.500000
649,-142.500000
650,-142.500000
651,-142.500000
652,-142.500000
653,-142.500000
654,-142.500000
655,-142.500000
656,-142.500000
657,-142.500000
658,-142.500000
659,-142.500000
660,-142.500000
661,-142.500000
662,-142.500000
663,-142.500000
664,-142.500000
665,-142.500000
666,-142.500000
667,-142.500000
668,-142.500000
669,-142.500000
670,-142.500000
671,-142.500000
672,-142.500000
673,-142.500000
674,-142.500000
675,-142.500000
676,-142.500000
677,-142.500000
678,-142.500000
679,-142.500000
680,-142.500000
681,-142.500000
682,-142.500000
683,-142.500000
684,-142.500000
685,-142.500000
686,-142.500000
687,-142.500000
688,-142.500000
689,-142.500000
690,-142.500000
691,-142.500000
692,-142.500000
693,-142.500000
694,-142.500000
695,-142.500000
696,-142.500000
697,-142.500000
698,-142.500000
699,-142.500000
700,-142.500000
701,-142.500000
702,-142.500000
703,-142.500000
704,-142.500000
705,-142.500000
706,-142.500000
707,-142.500000
708,-142.500000
709,-142.500000
710,-142.500000
711,-142.500000
712,-142.500000
713,-142.500000
714,-142.500000
715,-142.500000
716,-142.500000
717,-142.500000
718,-142.500000
719,-142.500000
720,-142.500000
721,-142.500000
722,-142.500000
723,-142.500000
724,-142.500000
725,-142.500000
726,-142.500000
727,-142.500000
728,-142.500000
729,-142.500000
730,-142.500000
731,-142.500000
732,-142.500000
733,-142.500000
734,-142.500000
735,-142.500000
736,-142.500000
737,-142.500000
738,-142.500000
739,-142.500000
740,-142.500000
741,-142.500000
742,-142.500000
743,-142.500000
744,-142.500000
745,-142.500000
746,-142.500000
747,-142.500000
748,-142.500000
749,-142.500000
750,-142.500000
751,-142.500000
752,-142.500000
753,-142.500000
754,-142.500000
755,-142.500000
756,-142.500000
757,-142.500000
758,-142.500000
759,-142.500000
760,-142.500000
761,-142.500000
762,-142.500000
763,-142.500000
764,-142.500000
765,-142.500000
766,-142.500000
767,-142.500000
768,-142.500000
769,-142.500000
770,-142.500000
771,-142.500000
772,-142.500000
773,-142.500000
774,-142.500000
775,-142.500000
776,-142.500000
777,-142.500000
778,-142.500000
779,-142.500000
780,-142.500000
781,-142.500000
782,-142.500000
783,-142.500000
784,-142.500000
785,-142.500000
786,-142.500000
787,-142.500000
788,-142.500000
789,-142.500000
790,-142.500000
791,-142.500000
792,-142.500000
793,-142.500000
794,-142.500000
795,-142.500000
796,-142.500000
797,-142.500000
798,-142.500000
799,-142.500000
800,-142.500000
801,-142.500000
802,-142.500000
803,-142.500000
804,-142.500000
805,-142.500000
806,-142.500000
807,-142.500000
808,-142.500000
809,-142.500000
810,-142.500000
811,-142.500000
812,-142.500000
813,-142.500000
814,-142.500000
815,-142.500000
816,-142.500000
817,-142.500000
818,-142.500000
819,-142.500000
820,-142.500000
821,-142.500000
822,-142.500000
823,-142.500000
824,-142.500000
825,-142.500000
826,-142.500000
827,-142.500000
828,-142.500000
829,-142.500000
830,-142.500000
831,-142.500000
832,-142.500000
833,-142.500000
834,-142.500000
835,-142.500000
836,-142.500000
837,-142.500000
838,-142.500000
839,-142.500000
840,-142.500000
841,-142.500000
842,-142.500000
843,-142.500000
844,-142.500000
845,-142.500000
846,-142.500000
847,-142.500000
848,-142.500000
849,-142.500000
850,-142.500000
851,-142.500000
852,-142.500000
853,-142.500000
854,-142.500000
855,-142.500000
856,-142.500000
857,-142.500000
858,-142.500000
859,-142.500000
860,-142.500000
861,-142.500000
862,-142.500000
863,-142.500000
864,-142.500000
865,-142.500000
866,-142.500000
867,-142.500000
868,-142.500000
869,-142.500000
870,-142.500000
871,-142.500000
872,-142.500000
873,-142.500000
874,-142.500000
875,-142.500000
876,-142.500000
877,-142.500000
878,-142.500000
879,-142.500000
880,-142.500000
881,-142.500000
882,-142.500000
883,-142.500000
884,-142.500000
885,-142.500000
886,-142.500000
887,-142.500000
888,-142.500000
889,-142.500000
890,-142.500000
891,-142.500000
892,-142.500000
893,-142.500000
894,-142.500000
895,-142.500000
896,-142.500000
897,-142.500000
898,-142.500000
899,-142.500000
900,-142.500000
901,-142.500000
902,-142.500000
903,-142.500000
904,-142.500000
905,-142.500000
906,-142.500000
907,-142.500000
908,-142.500000
909,-142.500000
910,-142.500000
911,-142.500000
912,-142.500000
913,-142.500000
914,-142.500000
915,-142.500000
916,-142.500000
917,-142.500000
918,-142.500000
919,-142.500000
920,-142.500000
921,-142.500000
922,-142.500000
923,-142.500000
924,-142.500000
925,-142.500000
926,-142.500000
927,-142.500000
928,-142.500000
929,-142.500000
930,-142.500000
931,-142.500000
932,-142.500000
933,-142.500000
934,-142.500000
935,-142.500000
936,-142.500000
937,-142.500000
938,-142.500000
939,-142.500000
940,-142.500000
941,-142.500000
942,-142.500000
943,-142.500000
944,-142.500000
945,-142.500000
946,-142.500000
947,-142.500000
948,-142.500000
949,-142.500000
950,-142.500000
951,-142.500000
952,-142.500000
953,-142.500000
954,-142.500000
955,-142.500000
956,-142.500000
957,-142.500000
958,-142.500000
959,-142.500000
960,-142.500000
961,-142.500000
962,-142.500000
963,-142.500000
964,-142.500000
965,-142.500000
966,-142.500000
967,-142.500000
968,-142.500000
969,-142.500000
970,-142.500000
971,-142.500000
972,-142.500000
973,-142.500000
974,-142.500000
975,-142.500000
976,-142.500000
977,-142.500000
978,-142.500000
979,-142.500000
980,-142.500000
981,-142.500000
982,-142.500000
983,-142.500000
984,-142.500000
985,-142.500000
986,-142.500000
987,-142.500000
988,-142.500000
989,-142.500000
990,-142.500000
991,-142.500000
992,-142.500000
993,-142.500000
994,-142.500000
995,-142.500000
996,-142.500000
997,-142.500000
998,-142.500000
999,-142.500000
1000,-142.500000
1001,-142.500000
1002,-142.500000
1003,-142.500000
1004,-142.500000
1005,-142.500000
1006,-142.500000
1007,-142.500000
1008,-142.500000
1009,-142.500000
1010,-142.500000
1011,-142.500000
1012,-142.500000
1013,-142.500000
1014,-142.500000
1015,-142.500000
1016,-142.500000
1017,-142.500000
1018,-142.500000
1019,-142.500000
1020,-142.500000
1021,-142.500000
1022,-142.500000
1023,-142.500000
1024,-142.500000
1025,-142.500000
1026,-142.500000
1027,-142.500000
1028,-142.500000
1029,-142.500000
1030,-142.500000
1031,-142.500000
1032,-142.500000
1033,-142.500000
1034,-142.500000
1035,-142.500000
1036,-142.500000
1037,-142.500000
1038,-142.500000
1039,-142.500000
1040,-142.500000
1041,-142.500000
1042,-142.500000
1043,-142.500000
1044,-142.500000
1045,-142.500000
1046,-142.500000
1047,-142.500000
1048,-142.500000
1049,-142.500000
1050,-142.500000
1051,-142.500000
1052,-142.500000
1053,-142.500000
1054,-142.500000
1055,-142.500000
1056,-142.500000
1057,-142.500000
1058,-142.500000
1059,-142.500000
1060,-142.500000
1061,-142.500000
1062,-142.500000
1063,-142.500000
1064,-142.500000
1065,-142.500000
1066,-142.500000
1067,-142.500000
1068,-142.500000
1069,-142.500000
1070,-142.500000
1071,-142.500000
1072,-142.500000
1073,-142.500000
1074,-142.500000
1075,-142.500000
1076,-142.500000
1077,-142.500000
1078,-142.500000
1079,-142.500000
1080,-142.500000
1081,-142.500000
1082,-142.500000
1083,-142.500000
1084,-142.500000
1085,-142.500000
1086,-142.500000
1087,-142.500000
1088,-142.500000
1089,-142.500000
1090,-142.500000
1091,-142.500000
1092,-142.500000
1093,-142.500000
1094,-142.500000
1095,-142.500000
1096,-142.500000
1097,-142.500000
1098,-142.500000
1099,-142.500000
1100,-142.500000
1101,-142.500000
1102,-142.500000
1103,-142.500000
1104,-142.500000
1105,-142.500000
1106,-142.500000
1107,-142.500000
1108,-142.500000
1109,-142.500000
1110,-142.500000
1111,-142.500000
1112,-142.500000
1113,-142.500000
1114,-142.500000
1115,-142.500000
1116,-142.500000
1117,-142.500000
1118,-142.500000
1119,-142.500000
1120,-142.500000
1121,-142.500000
1122,-142.500000
1123,-142.500000
1124,-142.500000
1125,-142.500000
1126,-142.500000
1127,-142.500000
1128,-142.500000
1129,-142.500000
1130,-142.500000
1131,-142.500000
1132,-142.500000
1133,-142.500000
1134,-142.500000
1135,-142.500000
1136,-142.500000
1137,-142.500000
1138,-142.500000
1139,-142.500000
1140,-142.500000
1141,-142.500000
1142,-142.500000
1143,-142.500000
1144,-142.500000
1145,-142.500000
1146,-142.500000
1147,-142.500000
1148,-142.500000
1149,-142.500000
1150,-142.500000
1151,-142.500000
1152,-142.500000
1153,-142.500000
1154,-142.500000
1155,-142.500000
1156,-142.500000
1157,-142.500000
1158,-142.500000
1159,-142.500000
1160,-142.500000
1161,-48.750000
1162,-142.500000
1163,-142.500000
1164,-142.500000
1165,-142.500000
1166,-142.500000
1167,-142.500000
1168,-142.500000
1169,-142.500000
1170,-142.500000
1171,-142.500000
1172,-142.500000
1173,-142.500000
1174,-142.500000
1175,-142.500000
1176,-142.500000
1177,-142.500000
1178,-142.500000
1179,-142.500000
1180,-142.500000
1181,-142.500000
1182,-142.500000
1183,-142.500000
1184,-142.500000
1185,-142.500000
1186,-142.500000
1187,-142.500000
1188,-142.500000
1189,-142.500000
1190,-142.500000
1191,-142.500000
1192,-142.500000
1193,-142.500000
1194,-142.500000
1195,-142.500000
1196,-142.500000
1197,-142.500000
1198,-142.500000
1199,-142.500000
1200,-142.500000
1201,-142.500000
1202,-142.500000
1203,-142.500000
1204,-142.500000
1205,-142.500000
1206,-142.500000
1207,-142.500000
1208,-142.500000
1209,-142.500000
1210,-142.500000
1211,-142.500000
1212,-142.500000
1213,-142.500000
1214,-142.500000
1215,-142.500000
1216,-142.500000
1217,-142.500000
1218,-142.500000
1219,-142.500000
1220,-142.500000
1221,-142.500000
1222,-142.500000
1223,-142.500000
1224,-142.500000
1225,-142.500000
1226,-142.500000
1227,-142.500000
1228,-142.500000
1229,-142.500000
1230,-142.500000
1231,-142.500000
1232,-142.500000
1233,-142.500000
1234,-142.500000
1235,-142.500000
1236,-142.500000
1237,-142.500000
1238,-142.500000
1239,-142.500000
1240,-142.500000
1241,-142.500000
1242,-142.500000
1243,-142.500000
1244,-142.500000
1245,-142.500000
1246,-142.500000
1247,-142.500000
1248,-142.500000
1249,-142.500000
1250,-142.500000
1251,-142.500000
1252,-142.500000
1253,-142.500000
1254,-142.500000
1255,-142.500000
1256,-142.500000
1257,-142.500000
1258,-142.500000
1259,-142.500000
1260,-142.500000
1261,-142.500000
1262,-142.500000
1263,-142.500000
1264,-142.500000
1265,-142.500000
1266,-142.500000
1267,-142.500000
1268,-142.500000
1269,-142.500000
1270,-142.500000
1271,-142.500000
1272,-142.500000
1273,-142.500000
1274,-142.500000
1275,-142.500000
1276,-142.500000
1277,-142.500000
1278,-142.500000
1279,-142.500000
1280,-142.500000
1281,-142.500000
1282,-142.500000
1283,-142.500000
1284,-142.500000
1285,-142.500000
1286,-142.500000
1287,-142.500000
1288,-142.500000
1289,-142.500000
1290,-142.500000
1291,-142.500000
1292,-142.500000
1293,-142.500000
1294,-142.500000
1295,-142.500000
1296,-142.500000
1297,-142.500000
1298,-142.500000
1299,-142.500000
1300,-142.500000
1301,-142.500000
1302,-142.500000
1303,-142.500000
1304,-142.500000
1305,-142.500000
1306,-142.500000
1307,-142.500000
1308,-142.500000
1309,-142.500000
1310,-142.500000
1311,-142.500000
1312,-142.500000
1313,-142.500000
1314,-142.500000
1315,-142.500000
1316,-142.500000
1317,-142.500000
1318,-142.500000
1319,-142.500000
1320,-142.500000
1321,-142.500000
1322,-142.500000
1323,-142.500000
1324,-142.500000
1325,-142.500000
1326,-142.500000
1327,-142.500000
1328,-142.500000
1329,-142.500000
1330,-142.500000
1331,-142.500000
1332,-142.500000
1333,-142.500000
1334,-142.500000
1335,-142.500000
1336,-142.500000
1337,-142.500000
1338,-142.500000
1339,-142.500000
1340,-142.500000
1341,-142.500000
1342,-142.500000
1343,-142.500000
1344,-142.500000
1345,-142.500000
1346,-142.500000
1347,-142.500000
1348,-142.500000
1349,-142.500000
1350,-142.500000
1351,-142.500000
1352,-142.500000
1353,-142.500000
1354,-142.500000
1355,-142.500000
1356,-142.500000
1357,-142.500000
1358,-142.500000
1359,-142.500000
1360,-142.500000
1361,-142.500000
1362,-142.500000
1363,-142.500000
1364,-142.500000
1365,-142.500000
1366,-142.500000
1367,-142.500000
1368,-142.500000
1369,-142.500000
1370,-142.500000
1371,-142.500000
1372,-142.500000
1373,-142.500000
1374,-142.500000
1375,-142.500000
1376,-142.500000
1377,-142.500000
1378,-142.500000
1379,-142.500000
1380,-142.500000
1381,-142.500000
1382,-142.500000
1383,-142.500000
1384,-142.500000
1385,-142.500000
1386,-142.500000
1387,-142.500000
1388,-142.500000
1389,-142.500000
1390,-142.500000
1391,-142.500000
1392,-142.500000
1393,-142.500000
1394,-142.500000
1395,-142.500000
1396,-142.500000
1397,-142.500000
1398,-142.500000
1399,-142.500000
1400,-142.500000
1401,-142.500000
1402,-142.500000
1403,-142.500000
1404,-142.500000
1405,-142.500000
1406,-142.500000
1407,-142.500000
1408,-142.500000
1409,-142.500000
1410,-142.500000
1411,-142.500000
1412,-142.500000
1413,-142.500000
1414,-142.500000
1415,-142.500000
1416,-142.500000
1417,-142.500000
1418,-142.500000
1419,-142.500000
1420,-142.500000
1421,-142.500000
1422,-142.500000
1423,-142.500000
1424,-142.500000
1425,-142.500000
1426,-142.500000
1427,-142.500000
1428,-142.500000
1429,-142.500000
1430,-142.500000
1431,-142.500000
1432,-142.500000
1433,-142.500000
1434,-142.500000
1435,-142.500000
1436,-142.500000
1437,-142.500000
1438,-142.500000
1439,-142.500000
1440,-142.500000
1441,-142.500000
1442,-142.500000
1443,-142.500000
1444,-142.500000
1445,-142.500000
1446,-142.500000
1447,-142.500000
1448,-142.500000
1449,-142.500000
1450,-142.500000
1451,-142.500000
1452,-142.500000
1453,-142.500000
1454,-142.500000
1455,-142.500000
1456,-142.500000
1457,-142.500000
1458,-142.500000
1459,-142.500000
1460,-142.500000
1461,-142.500000
1462,-142.500000
1463,-142.500000
1464,-142.500000
1465,-142.500000
1466,-142.500000
1467,-142.500000
1468,-142.500000
1469,-142.500000
1470,-142.500000
1471,-142.500000
1472,-142.500000
1473,-142.500000
1474,-142.500000
1475,-142.500000
1476,-142.500000
1477,-142.500000
1478,-142.500000
1479,-142.500000
1480,-142.500000
1481,-142.500000
1482,-142.500000
1483,-142.500000
1484,-142.500000
1485,-142.500000
1486,-142.500000
1487,-142.500000
1488,-142.500000
1489,-142.500000
1490,-142.500000
1491,-142.500000
1492,-142.500000
1493,-142.500000
1494,-142.500000
1495,-142.500000
1496,-142.500000
1497,-142.500000
1498,-142.500000
1499,-142.500000
1500,-142.500000
1501,-142.500000
1502,-142.500000
1503,-142.500000
1504,-142.500000
1505,-142.500000
1506,-142.500000
1507,-142.500000
1508,-142.500000
1509,-142.500000
1510,-142.500000
1511,-142.500000
1512,-142.500000
1513,-142.500000
1514,-142.500000
1515,-142.500000
1516,-142.500000
1517,-142.500000
1518,-142.500000
1519,-142.500000
1520,-142.500000
1521,-142.500000
1522,-142.500000
1523,-142.500000
1524,-142.500000
1525,-142.500000
1526,-142.500000
1527,-142.500000
1528,-142.500000
1529,-142.500000
1530,-142.500000
1531,-142.500000
1532,-142.500000
1533,-142.500000
1534,-142.500000
1535,-142.500000
1536,-142.500000
1537,-142.500000
1538,-142.500000
1539,-142.500000
1540,-142.500000
1541,-142.500000
1542,-142.500000
1543,-142.500000
1544,-142.500000
1545,-142.500000
1546,-142.500000
1547,-142.500000
1548,-142.500000
1549,-142.500000
1550,-142.500000
1551,-142.500000
1552,-142.500000
1553,-142.500000
1554,-142.500000
1555,-142.500000
1556,-142.500000
1557,-142.500000
1558,-142.500000
1559,-142.500000
1560,-142.500000
1561,-142.500000
1562,-142.500000
1563,-142.500000
1564,-142.500000
1565,-142.500000
1566,-142.500000
1567,-142.500000
1568,-142.500000
1569,-142.500000
1570,-142.500000
1571,-142.500000
1572,-142.500000
1573,-142.500000
1574,-142.500000
1575,-142.500000
1576,-142.500000
1577,-142.500000
1578,-142.500000
1579,-142.500000
1580,-142.500000
1581,-142.500000
1582,-142.500000
1583,-142.500000
1584,-142.500000
1585,-142.500000
1586,-142.500000
1587,-142.500000
1588,-142.500000
1589,-142.500000
1590,-142.500000
1591,-142.500000
1592,-142.500000
1593,-142.500000
1594,-142.500000
1595,-142.500000
1596,-142.500000
1597,-142.500000
1598,-142.500000
1599,-142.500000
1600,-142.500000
1601,-142.500000
1602,-142.500000
1603,-142.500000
1604,-142.500000
1605,-142.500000
1606,-142.500000
1607,-142.500000
1608,-142.500000
1609,-142.500000
1610,-142.500000
1611,-142.500000
1612,-142.500000
1613,-142.500000
1614,-142.500000
1615,-142.500000
1616,-142.500000
1617,-142.500000
1618,-142.500000
1619,-142.500000
1620,-142.500000
1621,-142.500000
1622,-142.500000
1623,-142.500000
1624,-142.500000
1625,-142.500000
1626,-142.500000
1627,-142.500000
1628,-142.500000
1629,-142.500000
1630,-142.500000
1631,-142.500000
1632,-142.500000
1633,-142.500000
1634,-142.500000
1635,-142.500000
1636,-142.500000
1637,-142.500000
1638,-142.500000
1639,-142.500000
1640,-142.500000
1641,-142.500000
1642,-142.500000
1643,-142.500000
1644,-142.500000
1645,-142.500000
1646,-142.500000
1647,-142.500000
1648,-142.500000
1649,-142.500000
1650,-142.500000
1651,-142.500000
1652,-142.500000
1653,-142.500000
1654,-142.500000
1655,-142.500000
1656,-142.500000
1657,-142.500000
1658,-142.500000
1659,-142.500000
1660,-142.500000
1661,-142.500000
1662,-142.500000
1663,-142.500000
1664,-142.500000
1665,-142.500000
1666,-142.500000
1667,-142.500000
1668,-142.500000
1669,-142.500000
1670,-142.500000
1671,-142.500000
1672,-142.500000
1673,-142.500000
1674,-142.500000
1675,-142.500000
1676,-142.500000
1677,-142.500000
1678,-142.500000
1679,-142.500000
1680,-142.500000
1681,-142.500000
1682,-142.500000
1683,-142.500000
1684,-142.500000
1685,-142.500000
1686,-142.500000
1687,-142.500000
1688,-142.500000
1689,-142.500000
1690,-142.500000
1691,-142.500000
1692,-142.500000
1693,-142.500000
1694,-142.500000
1695,-142.500000
1696,-142.500000
1697,-142.500000
1698,-142.500000
1699,-142.500000
1700,-142.500000
1701,-142.500000
1702,-142.500000
1703,-142.500000
1704,-142.500000
1705,-142.500000
1706,-142.500000
1707,-142.500000
1708,-142.500000
1709,-142.500000
1710,-142.500000
1711,-142.500000
1712,-142.500000
1713,-142.500000
1714,-142.500000
1715,-142.500000
1716,-142.500000
1717,-142.500000
1718,-142.500000
1719,-142.500000
1720,-142.500000
1721,-142.500000
1722,-142.500000
1723,-142.500000
1724,-142.500000
1725,-142.500000
1726,-142.500000
1727,-142.500000
1728,-142.500000
1729,-142.500000
1730,-142.500000
1731,-142.500000
1732,-142.500000
1733,-142.500000
1734,-142.500000
1735,-142.500000
1736,-142.500000
1737,-142.500000
1738,-142.500000
1739,-142.500000
1740,-142.500000
1741,-142.500000
1742,-142.500000
1743,-142.500000
1744,-142.500000
1745,-142.500000
1746,-142.500000
1747,-142.500000
1748,-142.500000
1749,-142.500000
1750,-142.500000
1751,-142.500000
1752,-142.500000
1753,-142.500000
1754,-142.500000
1755,-142.500000
1756,-142.500000
1757,-142.500000
1758,-142.500000
1759,-142.500000
1760,-142.500000
1761,-142.500000
1762,-142.500000
1763,-142.500000
1764,-142.500000
1765,-142.500000
1766,-142.500000
1767,-142.500000
1768,-142.500000
1769,-142.500000
1770,-142.500000
1771,-142.500000
1772,-142.500000
1773,-142.500000
1774,-142.500000
1775,-142.500000
1776,-142.500000
1777,-142.500000
1778,-142.500000
1779,-142.500000
1780,-142.500000
1781,-142.500000
1782,-142.500000
1783,-142.500000
1784,-142.500000
1785,-142.500000
1786,-142.500000
1787,-142.500000
1788,-142.500000
1789,-142.500000
1790,-142.500000
1791,-142.500000
1792,-142.500000
1793,-142.500000
1794,-142.500000
1795,-142.500000
1796,-142.500000
1797,-142.500000
1798,-142.500000
1799,-142.500000
1800,-142.500000
1801,-142.500000
1802,-142.500000
1803,-142.500000
1804,-142.500000
1805,-142.500000
1806,-142.500000
1807,-142.500000
1808,-142.500000
1809,-142.500000
1810,-142.500000
1811,-48.750000
1812,-142.500000
1813,-142.500000
1814,-142.500000
1815,-142.500000
1816,-142.500000
1817,-142.500000
1818,-142.500000
1819,-142.500000
1820,-142.500000
1821,-142.500000
1822,-142.500000
1823,-142.500000
1824,-142.500000
1825,-142.500000
1826,-142.500000
1827,-142.500000
1828,-142.500000
1829,-142.500000
1830,-142.500000
1831,-142.500000
1832,-142.500000
1833,-142.500000
1834,-142.500000
1835,-142.500000
1836,-142.500000
1837,-142.500000
1838,-142.500000
1839,-142.500000
1840,-142.500000
1841,-142.500000
1842,-142.500000
1843,-142.500000
1844,-142.500000
1845,-142.500000
1846,-142.500000
1847,-48.750000
1848,-142.500000
1849,-142.500000
1850,-142.500000
1851,-142.500000
1852,-142.500000
1853,-142.500000
1854,-142.500000
1855,-142.500000
1856,-142.500000
1857,-142.500000
1858,-142.500000
1859,-142.500000
1860,-142.500000
1861,-142.500000
1862,-142.500000
1863,-142.500000
1864,-142.500000
1865,-142.500000
1866,-142.500000
1867,-142.500000
1868,-142.500000
1869,-142.500000
1870,-142.500000
1871,-142.500000
1872,-142.500000
1873,-142.500000
1874,-142.500000
1875,-142.500000
1876,-142.500000
1877,-142.500000
1878,-142.500000
1879,-142.500000
1880,-142.500000
1881,-142.500000
1882,-142.500000
1883,-142.500000
1884,-142.500000
1885,-142.500000
1886,-142.500000
1887,-142.500000
1888,-142.500000
1889,-142.500000
1890,-142.500000
1891,-142.500000
1892,-142.500000
1893,-142.500000
1894,-142.500000
1895,-142.500000
1896,-142.500000
1897,-142.500000
1898,-142.500000
1899,-142.500000
1900,-142.500000
1901,-142.500000
1902,-142.500000
1903,-142.500000
1904,-142.500000
1905,-142.500000
1906,-142.500000
1907,-142.500000
1908,-142.500000
1909,-142.500000
1910,-142.500000
1911,-142.500000
1912,-142.500000
1913,-142.500000
1914,-142.500000
1915,-142.500000
1916,-142.500000
1917,-142.500000
1918,-142.500000
1919,-142.500000
1920,-142.500000
1921,-142.500000
1922,-142.500000
1923,-142.500000
1924,-142.500000
1925,-142.500000
1926,-48.750000
1927,-142.500000
1928,-142.500000
1929,-142.500000
1930,-142.500000
1931,-142.500000
1932,-142.500000
1933,-142.500000
1934,-142.500000
1935,-142.500000
1936,-142.500000
1937,-142.500000
1938,-142.500000
1939,-142.500000
1940,-142.500000
1941,-142.500000
1942,-142.500000
1943,-142.500000
1944,-142.500000
1945,-142.500000
1946,-142.500000
1947,-142.500000
1948,-142.500000
1949,-142.500000
1950,-142.500000
1951,-142.500000
1952,-142.500000
1953,-142.500000
1954,-142.500000
1955,-142.500000
1956,-142.500000
1957,-142.500000
1958,-142.500000
1959,-142.500000
1960,-142.500000
1961,-142.500000
1962,-142.500000
1963,-142.500000
1964,-142.500000
1965,-142.500000
1966,-142.500000
1967,-142.500000
1968,-142.500000
1969,-142.500000
1970,-142.500000
1971,-142.500000
1972,-142.500000
1973,-142.500000
1974,-142.500000
1975,-142.500000
1976,-142.500000
1977,-142.500000
1978,-142.500000
1979,-142.500000
1980,-142.500000
1981,-142.500000
1982,-142.500000
1983,-142.500000
1984,-142.500000
1985,-142.500000
1986,-142.500000
1987,-142.500000
1988,-142.500000
1989,-142.500000
1990,-142.500000
1991,-142.500000
1992,-142.500000
1993,-142.500000
1994,-142.500000
1995,-142.500000
1996,-142.500000
1997,-142.500000
1998,-142.500000
1999,-142.500000
2000,-142.500000
2001,-142.500000
2002,-142.500000
2003,-142.500000
2004,-142.500000
2005,-142.500000
2006,-142.500000
2007,-142.500000
2008,-142.500000
2009,-142.500000
2010,-142.500000
2011,-142.500000
2012,-142.500000
2013,-142.500000
2014,-142.500000
2015,-142.500000
2016,-142.500000
2017,-142.500000
2018,-142.500000
2019,-142.500000
2020,-142.500000
2021,-142.500000
2022,-142.500000
2023,-142.500000
2024,-142.500000
2025,-142.500000
2026,-142.500000
2027,-142.500000
2028,-142.500000
2029,-142.500000
2030,-142.500000
2031,-142.500000
2032,-142.500000
2033,-142.500000
2034,-142.500000
2035,-142.500000
2036,-142.500000
2037,-142.500000
2038,-142.500000
2039,-142.500000
2040,-142.500000
2041,-142.500000
2042,-142.500000
2043,-142.500000
2044,-142.500000
2045,-142.500000
2046,-142.500000
2047,-142.500000
2048,-142.500000
2049,-142.500000
2050,-142.500000
2051,-142.500000
2052,-142.500000
2053,-142.500000
2054,-142.500000
2055,-142.500000
2056,-142.500000
2057,-142.500000
2058,-142.500000
2059,-142.500000
2060,-142.500000
2061,-142.500000
2062,-142.500000
2063,-142.500000
2064,-142.500000
2065,-142.500000
2066,-142.500000
2067,-142.500000
2068,-142.500000
2069,-142.500000
2070,-142.500000
2071,-142.500000
2072,-142.500000
2073,-142.500000
2074,-142.500000
2075,-142.500000
2076,-142.500000
2077,-142.500000
2078,-142.500000
2079,-142.500000
2080,-142.500000
2081,-142.500000
2082,-142.500000
2083,-142.500000
2084,-142.500000
2085,-142.500000
2086,-142.500000
2087,-142.500000
2088,-142.500000
2089,-142.500000
2090,-142.500000
2091,-142.500000
2092,-142.500000
2093,-142.500000
2094,-142.500000
2095,-142.500000
2096,-142.500000
2097,-142.500000
2098,-142.500000
2099,-142.500000
2100,-142.500000
2101,-142.500000
2102,-142.500000
2103,-142.500000
2104,-142.500000
2105,-142.500000
2106,-142.500000
2107,-142.500000
2108,-142.500000
2109,-142.500000
2110,-142.500000
2111,-142.500000
2112,-142.500000
2113,-142.500000
2114,-142.500000
2115,-142.500000
2116,-142.500000
2117,-142.500000
2118,-142.500000
2119,-142.500000
2120,-142.500000
2121,-142.500000
2122,-142.500000
2123,-142.500000
2124,-142.500000
2125,-142.500000
2126,-142.500000
2127,-142.500000
2128,-142.500000
2129,-142.500000
2130,-142.500000
2131,-142.500000
2132,-142.500000
2133,-142.500000
2134,-142.500000
2135,-142.500000
2136,-142.500000
2137,-142.500000
2138,-142.500000
2139,-142.500000
2140,-142.500000
2141,-142.500000
2142,-142.500000
2143,-142.500000
2144,-142.500000
2145,-142.500000
2146,-142.500000
2147,-142.500000
2148,-142.500000
2149,-142.500000
2150,-142.500000
2151,-142.500000
2152,-142.500000
2153,-142.500000
2154,-142.500000
2155,-142.500000
2156,-142.500000
2157,-142.500000
2158,-142.500000
2159,-142.500000
2160,-142.500000
2161,-142.500000
2162,-142.500000
2163,-142.500000
2164,-142.500000
2165,-142.500000
2166,-142.500000
2167,-142.500000
2168,-142.500000
2169,-142.500000
2170,-142.500000
2171,-142.500000
2172,-142.500000
2173,-142.500000
2174,-142.500000
2175,-142.500000
2176,-142.500000
2177,-142.500000
2178,-142.500000
2179,-142.500000
2180,-142.500000
2181,-142.500000
2182,-142.500000
2183,-142.500000
2184,-142.500000
2185,-142.500000
2186,-142.500000
2187,-142.500000
2188,-142.500000
2189,-142.500000
2190,-142.500000
2191,-142.500000
2192,-142.500000
2193,-142.500000
2194,-142.500000
2195,-142.500000
2196,-142.500000
2197,-142.500000
2198,-142.500000
2199,-142.500000
2200,-142.500000
2201,-142.500000
2202,-142.500000
2203,-142.500000
2204,-142.500000
2205,-142.500000
2206,-142.500000
2207,-142.500000
2208,-142.500000
2209,-142.500000
2210,-142.500000
2211,-142.500000
2212,-142.500000
2213,-142.500000
2214,-142.500000
2215,-142.500000
2216,-142.500000
2217,-142.500000
2218,-142.500000
2219,-142.500000
2220,-142.500000
2221,-142.500000
2222,-142.500000
2223,-142.500000
2224,-142.500000
2225,-142.500000
2226,-142.500000
2227,-142.500000
2228,-142.500000
2229,-142.500000
2230,-142.500000
2231,-142.500000
2232,-142.500000
2233,-142.500000
2234,-142.500000
2235,-142.500000
2236,-142.500000
2237,-142.500000
2238,-142.500000
2239,-142.500000
2240,-142.500000
2241,-142.500000
2242,-142.500000
2243,-142.500000
2244,-142.500000
2245,-142.500000
2246,-142.500000
2247,-142.500000
2248,-142.500000
2249,-142.500000
2250,-142.500000
2251,-142.500000
2252,-142.500000
2253,-142.500000
2254,-142.500000
2255,-142.500000
2256,-142.500000
2257,-142.500000
2258,-142.500000
2259,-142.500000
2260,-142.500000
2261,-142.500000
2262,-142.500000
2263,-142.500000
2264,-142.500000
2265,-142.500000
2266,-142.500000
2267,-142.500000
2268,-142.500000
2269,-142.500000
2270,-142.500000
2271,-142.500000
2272,-142.500000
2273,-142.500000
2274,-142.500000
2275,-142.500000
2276,-142.500000
2277,-142.500000
2278,-142.500000
2279,-142.500000
2280,-142.500000
2281,-142.500000
2282,-142.500000
2283,-142.500000
2284,-142.500000
2285,-142.500000
2286,-142.500000
2287,-142.500000
2288,-142.500000
2289,-142.500000
2290,-142.500000
2291,-142.500000
2292,-142.500000
2293,-142.500000
2294,-142.500000
2295,-142.500000
2296,-142.500000
2297,-142.500000
2298,-142.500000
2299,-142.500000
2300,-142.500000
2301,-142.500000
2302,-142.500000
2303,-142.500000
2304,-142.500000
2305,-142.500000
2306,-142.500000
2307,-142.500000
2308,-142.500000
2309,-142.500000
2310,-142.500000
2311,-142.500000
2312,-142.500000
2313,-142.500000
2314,-142.500000
2315,-142.500000
2316,-142.500000
2317,-142.500000
2318,-142.500000
2319,-142.500000
2320,-142.500000
2321,-142.500000
2322,-142.500000
2323,-142.500000
2324,-142.500000
2325,-142.500000
2326,-142.500000
2327,-142.500000
2328,-142.500000
2329,-142.500000
2330,-142.500000
2331,-142.500000
2332,-142.500000
2333,-142.500000
2334,-142.500000
2335,-142.500000
2336,-142.500000
2337,-142.500000
2338,-142.500000
2339,-142.500000
2340,-142.500000
2341,-142.500000
2342,-142.500000
2343,-142.500000
2344,-142.500000
2345,-142.500000
2346,-142.500000
2347,-142.500000
2348,-142.500000
2349,-142.500000
2350,-142.500000
2351,-142.500000
2352,-142.500000
2353,-142.500000
2354,-142.500000
2355,-142.500000
2356,-142.500000
2357,-142.500000
2358,-142.500000
2359,-142.500000
2360,-142.500000
2361,-142.500000
2362,-142.500000
2363,-142.500000
2364,-142.500000
2365,-142.500000
2366,-142.500000
2367,-142.500000
2368,-142.500000
2369,-142.500000
2370,-142.500000
2371,-142.500000
2372,-142.500000
2373,-142.500000
2374,-142.500000
2375,-142.500000
2376,-142.500000
2377,-142.500000
2378,-142.500000
2379,-142.500000
2380,-142.500000
2381,-142.500000
2382,-142.500000
2383,-142.500000
2384,-142.500000
2385,-142.500000
2386,-142.500000
2387,-142.500000
2388,-142.500000
2389,-142.500000
2390,-142.500000
2391,-142.500000
2392,-142.500000
2393,-142.500000
2394,-142.500000
2395,-142.500000
2396,-142.500000
2397,-142.500000
2398,-142.500000
2399,-142.500000
2400,-142.500000
2401,-142.500000
2402,-142.500000
2403,-142.500000
2404,-142.500000
2405,-142.500000
2406,-142.500000
2407,-142.500000
2408,-142.500000
2409,-142.500000
2410,-142.500000
2411,-142.500000
2412,-142.500000
2413,-142.500000
2414,-142.500000
2415,-142.500000
2416,-142.500000
2417,-142.500000
2418,-142.500000
2419,-142.500000
2420,-142.500000
2421,-142.500000
2422,-142.500000
2423,-142.500000
2424,-142.500000
2425,-142.500000
2426,-142.500000
2427,-142.500000
2428,-142.500000
2429,-142.500000
2430,-142.500000
2431,-142.500000
2432,-142.500000
2433,-142.500000
2434,-142.500000
2435,-142.500000
2436,-142.500000
2437,-142.500000
2438,-142.500000
2439,-142.500000
2440,-142.500000
2441,-142.500000
2442,-142.500000
2443,-142.500000
2444,-142.500000
2445,-142.500000
2446,-142.500000
2447,-142.500000
2448,-142.500000
2449,-142.500000
2450,-142.500000
2451,-142.500000
2452,-142.500000
2453,-142.500000
2454,-142.500000
2455,-142.500000
2456,-142.500000
2457,-142.500000
2458,-142.500000
2459,-142.500000
2460,-142.500000
2461,-142.500000
2462,-142.500000
2463,-142.500000
2464,-142.500000
2465,-142.500000
2466,-142.500000
2467,-142.500000
2468,-142.500000
2469,-142.500000
2470,-142.500000
2471,-142.500000
2472,-142.500000
2473,-142.500000
2474,-142.500000
2475,-142.500000
2476,-142.500000
2477,-142.500000
2478,-142.500000
2479,-142.500000
2480,-142.500000
2481,-142.500000
2482,-142.500000
2483,-142.500000
2484,-142.500000
2485,-142.500000
2486,-142.500000
2487,-142.500000
2488,-142.500000
2489,-142.500000
2490,-142.500000
2491,-142.500000
2492,-142.500000
2493,-142.500000
2494,-142.500000
2495,-142.500000
2496,-142.500000
2497,-142.500000
2498,-142.500000
2499,-142.500000
2500,-142.500000
2501,-142.500000
2502,-142.500000
2503,-142.500000
2504,-142.500000
2505,-142.500000
2506,-142.500000
2507,-142.500000
2508,-142.500000
2509,-142.500000
2510,-142.500000
2511,-142.500000
2512,-142.500000
2513,-142.500000
2514,-142.500000
2515,-142.500000
2516,-142.500000
2517,-142.500000
2518,-142.500000
2519,-142.500000
2520,-142.500000
2521,-142.500000
2522,-142.500000
2523,-142.500000
2524,-142.500000
2525,-142.500000
2526,-142.500000
2527,-48.750000
2528,-142.500000
2529,-142.500000
2530,-142.500000
2531,-142.500000
2532,-142.500000
2533,-142.500000
2534,-142.500000
2535,-142.500000
2536,-142.500000
2537,-142.500000
2538,-142.500000
2539,-142.500000
2540,-142.500000
2541,-142.500000
2542,-142.500000
2543,-142.500000
2544,-142.500000
2545,-142.500000
2546,-142.500000
2547,-142.500000
2548,-142.500000
2549,-142.500000
2550,-142.500000
2551,-142.500000
2552,-142.500000
2553,-142.500000
2554,-142.500000
2555,-142.500000
2556,-142.500000
2557,-142.500000
2558,-142.500000
2559,-142.500000
2560,-142.500000
2561,-142.500000
2562,-142.500000
2563,-142.500000
2564,-142.500000
2565,-142.500000
2566,-142.500000
2567,-142.500000
2568,-142.500000
2569,-142.500000
2570,-142.500000
2571,-142.500000
2572,-142.500000
2573,-142.500000
2574,-142.500000
2575,-142.500000
2576,-142.500000
2577,-142.500000
2578,-142.500000
2579,-142.500000
2580,-142.500000
2581,-142.500000
2582,-142.500000
2583,-142.500000
2584,-142.500000
2585,-142.500000
2586,-142.500000
2587,-142.500000
2588,-142.500000
2589,-142.500000
2590,-142.500000
2591,-142.500000
2592,-142.500000
2593,-142.500000
2594,-142.500000
2595,-142.500000
2596,-142.500000
2597,-142.500000
2598,-142.500000
2599,-142.500000
2600,-142.500000
2601,-142.500000
2602,-142.500000
2603,-142.500000
2604,-142.500000
2605,-142.500000
2606,-142.500000
2607,-142.500000
2608,-142.500000
2609,-142.500000
2610,-142.500000
2611,-142.500000
2612,-142.500000
2613,-142.500000
2614,-142.500000
2615,-142.500000
2616,-142.500000
2617,-142.500000
2618,-142.500000
2619,-142.500000
2620,-142.500000
2621,-142.500000
2622,-142.500000
2623,-142.500000
2624,-142.500000
2625,-142.500000
2626,-142.500000
2627,-142.500000
2628,-142.500000
2629,-142.500000
2630,-142.500000
2631,-142.500000
2632,-142.500000
2633,-142.500000
2634,-142.500000
2635,-142.500000
2636,-142.500000
2637,-142.500000
2638,-142.500000
2639,-142.500000
2640,-142.500000
2641,-142.500000
2642,-142.500000
2643,-142.500000
2644,-142.500000
2645,-142.500000
2646,-142.500000
2647,-142.500000
2648,-142.500000
2649,-142.500000
2650,-142.500000
2651,-142.500000
2652,-142.500000
2653,-142.500000
2654,-142.500000
2655,-142.500000
2656,-142.500000
2657,-142.500000
2658,-142.500000
2659,-142.500000
2660,-142.500000
2661,-142.500000
2662,-142.500000
2663,-142.500000
2664,-142.500000
2665,-142.500000
2666,-142.500000
2667,-142.500000
2668,-142.500000
2669,-142.500000
2670,-142.500000
2671,-142.500000
2672,-142.500000
2673,-142.500000
2674,-142.500000
2675,-142.500000
2676,-142.500000
2677,-142.500000
2678,-142.500000
2679,-142.500000
2680,-142.500000
2681,-142.500000
2682,-142.500000
2683,-142.500000
2684,-142.500000
2685,-142.500000
2686,-142.500000
2687,-142.500000
2688,-142.500000
2689,-142.500000
2690,-142.500000
2691,-142.500000
2692,-142.500000
2693,-142.500000
2694,-142.500000
2695,-142.500000
2696,-142.500000
2697,-142.500000
2698,-142.500000
2699,-142.500000
2700,-142.500000
2701,-142.500000
2702,-142.500000
2703,-142.500000
2704,-142.500000
2705,-142.500000
2706,-142.500000
2707,-142.500000
2708,-142.500000
2709,-142.500000
2710,-142.500000
2711,-142.500000
2712,-142.500000
2713,-142.500000
2714,-142.500000
2715,-142.500000
2716,-142.500000
2717,-142.500000
2718,-142.500000
2719,-142.500000
2720,-142.500000
2721,-142.500000
2722,-142.500000
2723,-142.500000
2724,-142.500000
2725,-142.500000
2726,-142.500000
2727,-142.500000
2728,-142.500000
2729,-142.500000
2730,-142.500000
2731,-142.500000
2732,-142.500000
2733,-142.500000
2734,-142.500000
2735,-142.500000
2736,-142.500000
2737,-142.500000
2738,-142.500000
2739,-142.500000
2740,-142.500000
2741,-142.500000
2742,-142.500000
2743,-142.500000
2744,-142.500000
2745,-142.500000
2746,-142.500000
2747,-142.500000
2748,-142.500000
2749,-142.500000
2750,-142.500000
2751,-142.500000
2752,-142.500000
2753,-142.500000
2754,-142.500000
2755,-142.500000
2756,-142.500000
2757,-142.500000
2758,-142.500000
2759,-142.500000
2760,-142.500000
2761,-142.500000
2762,-142.500000
2763,-142.500000
2764,-142.500000
2765,-142.500000
2766,-142.500000
2767,-142.500000
2768,-142.500000
2769,-142.500000
2770,-142.500000
2771,-142.500000
2772,-142.500000
2773,-142.500000
2774,-142.500000
2775,-142.500000
2776,-142.500000
2777,-142.500000
2778,-142.500000
2779,-142.500000
2780,-142.500000
2781,-142.500000
2782,-142.500000
2783,-142.500000
2784,-142.500000
2785,-142.500000
2786,-142.500000
2787,-142.500000
2788,-142.500000
2789,-142.500000
2790,-142.500000
2791,-142.500000
2792,-142.500000
2793,-142.500000
2794,-142.500000
2795,-142.500000
2796,-142.500000
2797,-142.500000
2798,-142.500000
2799,-142.500000
2800,-142.500000
2801,-142.500000
2802,-142.500000
2803,-142.500000
2804,-142.500000
2805,-142.500000
2806,-142.500000
2807,-142.500000
2808,-142.500000
2809,-142.500000
2810,-142.500000
2811,-142.500000
2812,-142.500000
2813,-142.500000
2814,-142.500000
2815,-142.500000
2816,-142.500000
2817,-142.500000
2818,-142.500000
2819,-142.500000
2820,-142.500000
2821,-142.500000
2822,-142.500000
2823,-142.500000
2824,-142.500000
2825,-142.500000
2826,-48.750000
2827,-142.500000
2828,-142.500000
2829,-142.500000
2830,-142.500000
2831,-142.500000
2832,-142.500000
2833,-142.500000
2834,-142.500000
2835,-142.500000
2836,-142.500000
2837,-142.500000
2838,-142.500000
2839,-142.500000
2840,-142.500000
2841,-142.500000
2842,-142.500000
2843,-142.500000
2844,-142.500000
2845,-142.500000
2846,-142.500000
2847,-142.500000
2848,-142.500000
2849,-142.500000
2850,-142.500000
2851,-142.500000
2852,-142.500000
2853,-142.500000
2854,-142.500000
2855,-142.500000
2856,-142.500000
2857,-142.500000
2858,-142.500000
2859,-142.500000
2860,-142.500000
2861,-142.500000
2862,-142.500000
2863,-142.500000
2864,-142.500000
2865,-142.500000
2866,-142.500000
2867,-142.500000
2868,-142.500000
2869,-142.500000
2870,-142.500000
2871,-142.500000
2872,-142.500000
2873,-142.500000
2874,-142.500000
2875,-142.500000
2876,-142.500000
2877,-142.500000
2878,-142.500000
2879,-142.500000
2880,-142.500000
2881,-142.500000
2882,-142.500000
2883,-142.500000
2884,-142.500000
2885,-142.500000
2886,-142.500000
2887,-142.500000
2888,-142.500000
2889,-142.500000
2890,-142.500000
2891,-142.500000
2892,-142.500000
2893,-142.500000
2894,-142.500000
2895,-142.500000
2896,-142.500000
2897,-142.500000
2898,-142.500000
2899,-142.500000
2900,-142.500000
2901,-142.500000
2902,-142.500000
2903,-142.500000
2904,-142.500000
2905,-142.500000
2906,-142.500000
2907,-142.500000
2908,-142.500000
2909,-142.500000
2910,-142.500000
2911,-142.500000
2912,-142.500000
2913,-142.500000
2914,-142.500000
2915,-142.500000
2916,-142.500000
2917,-142.500000
2918,-142.500000
2919,-142.500000
2920,-142.500000
2921,-142.500000
2922,-142.500000
2923,-142.500000
2924,-142.500000
2925,-142.500000
2926,-142.500000
2927,-142.500000
2928,-142.500000
2929,-142.500000
2930,-142.500000
2931,-142.500000
2932,-142.500000
2933,-142.500000
2934,-142.500000
2935,-142.500000
2936,-142.500000
2937,-142.500000
2938,-142.500000
2939,-142.500000
2940,-142.500000
2941,-142.500000
2942,-142.500000
2943,-142.500000
2944,-142.500000
2945,-142.500000
2946,-142.500000
2947,-142.500000
2948,-142.500000
2949,-142.500000
2950,-142.500000
2951,-142.500000
2952,-142.500000
2953,-142.500000
2954,-142.500000
2955,-142.500000
2956,-142.500000
2957,-142.500000
2958,-142.500000
2959,-142.500000
2960,-142.500000
2961,-142.500000
2962,-142.500000
2963,-142.500000
2964,-142.500000
2965,-142.500000
2966,-142.500000
2967,-142.500000
2968,-142.500000
2969,-142.500000
2970,-142.500000
2971,-142.500000
2972,-142.500000
2973,-142.500000
2974,-142.500000
2975,-142.500000
2976,-142.500000
2977,-142.500000
2978,-142.500000
2979,-142.500000
2980,-142.500000
2981,-142.500000
2982,-142.500000
2983,-142.500000
2984,-142.500000
2985,-142.500000
2986,-142.500000
2987,-142.500000
2988,-142.500000
2989,-142.500000
2990,-142.500000
2991,-142.500000
2992,-142.500000
2993,-142.500000
2994,-142.500000
2995,-142.500000
2996,-142.500000
2997,-142.500000
2998,-142.500000
2999,-142.500000
3000,-142.500000
3001,-142.500000
3002,-142.500000
3003,-142.500000
3004,-142.500000
3005,-142.500000
3006,-142.500000
3007,-142.500000
3008,-142.500000
3009,-142.500000
3010,-142.500000
3011,-142.500000
3012,-142.500000
3013,-142.500000
3014,-142.500000
3015,-142.500000
3016,-142.500000
3017,-142.500000
3018,-142.500000
3019,-142.500000
3020,-142.500000
3021,-142.500000
3022,-142.500000
3023,-142.500000
3024,-142.500000
3025,-142.500000
3026,-142.500000
3027,-142.500000
3028,-142.500000
3029,-142.500000
3030,-142.500000
3031,-142.500000
3032,-142.500000
3033,-142.500000
3034,-142.500000
3035,-142.500000
3036,-142.500000
3037,-142.500000
3038,-142.500000
3039,-142.500000
3040,-142.500000
3041,-142.500000
3042,-142.500000
3043,-142.500000
3044,-142.500000
3045,-142.500000
3046,-142.500000
3047,-142.500000
3048,-142.500000
3049,-142.500000
3050,-142.500000
3051,-142.500000
3052,-142.500000
3053,-142.500000
3054,-142.500000
3055,-142.500000
3056,-142.500000
3057,-142.500000
3058,-142.500000
3059,-142.500000
3060,-142.500000
3061,-142.500000
3062,-142.500000
3063,-142.500000
3064,-142.500000
3065,-142.500000
3066,-142.500000
3067,-142.500000
3068,-142.500000
3069,-142.500000
3070,-142.500000
3071,-142.500000
3072,-142.500000
3073,-142.500000
3074,-142.500000
3075,-142.500000
3076,-142.500000
3077,-142.500000
3078,-142.500000
3079,-142.500000
3080,-142.500000
3081,-142.500000
3082,-142.500000
3083,-142.500000
3084,-142.500000
3085,-142.500000
3086,-142.500000
3087,-142.500000
3088,-142.500000
3089,-142.500000
3090,-142.500000
3091,-142.500000
3092,-142.500000
3093,-142.500000
3094,-142.500000
3095,-142.500000
3096,-142.500000
3097,-142.500000
3098,-142.500000
3099,-142.500000
3100,-142.500000
3101,-142.500000
3102,-142.500000
3103,-142.500000
3104,-142.500000
3105,-142.500000
3106,-142.500000
3107,-142.500000
3108,-142.500000
3109,-142.500000
3110,-142.500000
3111,-142.500000
3112,-142.500000
3113,-142.500000
3114,-142.500000
3115,-142.500000
3116,-142.500000
3117,-142.500000
3118,-142.500000
3119,-142.500000
3120,-142.500000
3121,-142.500000
3122,-142.500000
3123,-142.500000
3124,-142.500000
3125,-142.500000
3126,-142.500000
3127,-142.500000
3128,-142.500000
3129,-142.500000
3130,-142.500000
3131,-142.500000
3132,-142.500000
3133,-142.500000
3134,-142.500000
3135,-142.500000
3136,-142.500000
3137,-142.500000
3138,-142.500000
3139,-142.500000
3140,-142.500000
3141,-142.500000
3142,-142.500000
3143,-142.500000
3144,-142.500000
3145,-142.500000
3146,-142.500000
3147,-142.500000
3148,-142.500000
3149,-142.500000
3150,-142.500000
3151,-142.500000
3152,-142.500000
3153,-142.500000
3154,-142.500000
3155,-142.500000
3156,-142.500000
3157,-142.500000
3158,-142.500000
3159,-142.500000
3160,-142.500000
3161,-142.500000
3162,-142.500000
3163,-142.500000
3164,-142.500000
3165,-142.500000
3166,-142.500000
3167,-142.500000
3168,-142.500000
3169,-142.500000
3170,-142.500000
3171,-142.500000
3172,-142.500000
3173,-142.500000
3174,-142.500000
3175,-142.500000
3176,-142.500000
3177,-142.500000
3178,-142.500000
3179,-142.500000
3180,-142.500000
3181,-142.500000
3182,-142.500000
3183,-142.500000
3184,-142.500000
3185,-142.500000
3186,-142.500000
3187,-142.500000
3188,-142.500000
3189,-142.500000
3190,-142.500000
3191,-142.500000
3192,-142.500000
3193,-142.500000
3194,-142.500000
3195,-142.500000
3196,-142.500000
3197,-142.500000
3198,-142.500000
3199,-142.500000
3200,-142.500000
3201,-142.500000
3202,-142.500000
3203,-142.500000
3204,-142.500000
3205,-142.500000
3206,-142.500000
3207,-142.500000
3208,-142.500000
3209,-142.500000
3210,-142.500000
3211,-142.500000
3212,-142.500000
3213,-142.500000
3214,-142.500000
3215,-142.500000
3216,-142.500000
3217,-142.500000
3218,-142.500000
3219,-142.500000
3220,-142.500000
3221,-142.500000
3222,-142.500000
3223,-142.500000
3224,-142.500000
3225,-142.500000
3226,-142.500000
3227,-142.500000
3228,-142.500000
3229,-142.500000
3230,-142.500000
3231,-142.500000
3232,-142.500000
3233,-142.500000
3234,-142.500000
3235,-142.500000
3236,-142.500000
3237,-142.500000
3238,-142.500000
3239,-142.500000
3240,-142.500000
3241,-142.500000
3242,-142.500000
3243,-142.500000
3244,-142.500000
3245,-142.500000
3246,-142.500000
3247,-142.500000
3248,-142.500000
3249,-142.500000
3250,-142.500000
3251,-142.500000
3252,-142.500000
3253,-142.500000
3254,-142.500000
3255,-142.500000
3256,-142.500000
3257,-142.500000
3258,-142.500000
3259,-142.500000
3260,-142.500000
3261,-142.500000
3262,-142.500000
3263,-142.500000
3264,-142.500000
3265,-142.500000
3266,-142.500000
3267,-142.500000
3268,-142.500000
3269,-142.500000
3270,-142.500000
3271,-142.500000
3272,-142.500000
3273,-142.500000
3274,-142.500000
3275,-142.500000
3276,-142.500000
3277,-142.500000
3278,-142.500000
3279,-142.500000
3280,-142.500000
3281,-142.500000
3282,-142.500000
3283,-142.500000
3284,-142.500000
3285,-142.500000
3286,-142.500000
3287,-142.500000
3288,-142.500000
3289,-142.500000
3290,-142.500000
3291,-142.500000
3292,-142.500000
3293,-142.500000
3294,-142.500000
3295,-142.500000
3296,-142.500000
3297,-142.500000
3298,-142.500000
3299,-142.500000
3300,-142.500000
3301,-142.500000
3302,-142.500000
3303,-142.500000
3304,-142.500000
3305,-142.500000
3306,-142.500000
3307,-142.500000
3308,-142.500000
3309,-142.500000
3310,-142.500000
3311,-142.500000
3312,-142.500000
3313,-142.500000
3314,-142.500000
3315,-142.500000
3316,-142.500000
3317,-142.500000
3318,-142.500000
3319,-142.500000
3320,-142.500000
3321,-142.500000
3322,-142.500000
3323,-142.500000
3324,-142.500000
3325,-142.500000
3326,-142.500000
3327,-142.500000
3328,-142.500000
3329,-142.500000
3330,-142.500000
3331,-142.500000
3332,-142.500000
3333,-142.500000
3334,-142.500000
3335,-142.500000
3336,-142.500000
3337,-142.500000
3338,-142.500000
3339,-142.500000
3340,-142.500000
3341,-142.500000
3342,-142.500000
3343,-142.500000
3344,-142.500000
3345,-142.500000
3346,-142.500000
3347,-142.500000
3348,-142.500000
3349,-142.500000
3350,-142.500000
3351,-142.500000
3352,-142.500000
3353,-142.500000
3354,-142.500000
3355,-142.500000
3356,-142.500000
3357,-142.500000
3358,-142.500000
3359,-142.500000
3360,-142.500000
3361,-142.500000
3362,-142.500000
3363,-142.500000
3364,-142.500000
3365,-142.500000
3366,-142.500000
3367,-142.500000
3368,-142.500000
3369,-142.500000
3370,-142.500000
3371,-142.500000
3372,-142.500000
3373,-142.500000
3374,-142.500000
3375,-142.500000
3376,-142.500000
3377,-142.500000
3378,-142.500000
3379,-142.500000
3380,-142.500000
3381,-142.500000
3382,-142.500000
3383,-142.500000
3384,-142.500000
3385,-142.500000
3386,-142.500000
3387,-142.500000
3388,-142.500000
3389,-142.500000
3390,-142.500000
3391,-142.500000
3392,-142.500000
3393,-142.500000
3394,-142.500000
3395,-142.500000
3396,-142.500000
3397,-142.500000
3398,-142.500000
3399,-142.500000
3400,-142.500000
3401,-142.500000
3402,-142.500000
3403,-142.500000
3404,-142.500000
3405,-142.500000
3406,-48.750000
3407,-142.500000
3408,-142.500000
3409,-142.500000
3410,-142.500000
3411,-142.500000
3412,-142.500000
3413,-142.500000
3414,-142.500000
3415,-142.500000
3416,-142.500000
3417,-142.500000
3418,-142.500000
3419,-142.500000
3420,-142.500000
3421,-142.500000
3422,-142.500000
3423,-142.500000
3424,-142.500000
3425,-142.500000
3426,-142.500000
3427,-142.500000
3428,-142.500000
3429,-142.500000
3430,-142.500000
3431,-142.500000
3432,-142.500000
3433,-142.500000
3434,-142.500000
3435,-142.500000
3436,-142.500000
3437,-142.500000
3438,-142.500000
3439,-142.500000
3440,-142.500000
3441,-142.500000
3442,-142.500000
3443,-142.500000
3444,-142.500000
3445,-142.500000
3446,-142.500000
3447,-142.500000
3448,-142.500000
3449,-142.500000
3450,-142.500000
3451,-142.500000
3452,-142.500000
3453,-142.500000
3454,-142.500000
3455,-142.500000
3456,-142.500000
3457,-142.500000
3458,-142.500000
3459,-142.500000
3460,-142.500000
3461,-142.500000
3462,-142.500000
3463,-142.500000
3464,-142.500000
3465,-142.500000
3466,-142.500000
3467,-142.500000
3468,-142.500000
3469,-142.500000
3470,-142.500000
3471,-142.500000
3472,-142.500000
3473,-142.500000
3474,-142.500000
3475,-142.500000
3476,-142.500000
3477,-142.500000
3478,-142.500000
3479,-142.500000
3480,-142.500000
3481,-142.500000
3482,-142.500000
3483,-142.500000
3484,-142.500000
3485,-142.500000
3486,-142.500000
3487,-142.500000
3488,-142.500000
3489,-142.500000
3490,-142.500000
3491,-142.500000
3492,-142.500000
3493,-142.500000
3494,-142.500000
3495,-142.500000
3496,-142.500000
3497,-142.500000
3498,-142.500000
3499,-142.500000
3500,-142.500000
3501,-142.500000
3502,-142.500000
3503,-142.500000
3504,-142.500000
3505,-142.500000
3506,-142.500000
3507,-142.500000
3508,-142.500000
3509,-142.500000
3510,-142.500000
3511,-142.500000
3512,-142.500000
3513,-142.500000
3514,-142.500000
3515,-142.500000
3516,-142.500000
3517,-142.500000
3518,-142.500000
3519,-142.500000
3520,-142.500000
3521,-142.500000
3522,-142.500000
3523,-142.500000
3524,-142.500000
3525,-142.500000
3526,-142.500000
3527,-142.500000
3528,-142.500000
3529,-142.500000
3530,-142.500000
3531,-142.500000
3532,-142.500000
3533,-142.500000
3534,-142.500000
3535,-142.500000
3536,-142.500000
3537,-142.500000
3538,-142.500000
3539,-142.500000
3540,-142.500000
3541,-142.500000
3542,-142.500000
3543,-142.500000
3544,-142.500000
3545,-142.500000
3546,-142.500000
3547,-142.500000
3548,-142.500000
3549,-142.500000
3550,-142.500000
3551,-142.500000
3552,-142.500000
3553,-142.500000
3554,-142.500000
3555,-142.500000
3556,-142.500000
3557,-142.500000
3558,-142.500000
3559,-142.500000
3560,-142.500000
3561,-142.500000
3562,-142.500000
3563,-142.500000
3564,-142.500000
3565,-142.500000
3566,-142.500000
3567,-142.500000
3568,-142.500000
3569,-142.500000
3570,-142.500000
3571,-142.500000
3572,-142.500000
3573,-142.500000
3574,-142.500000
3575,-142.500000
3576,-142.500000
3577,-142.500000
3578,-142.500000
3579,-142.500000
3580,-142.500000
3581,-142.500000
3582,-142.500000
3583,-142.500000
3584,-142.500000
3585,-142.500000
3586,-142.500000
3587,-142.500000
3588,-142.500000
3589,-142.500000
3590,-142.500000
3591,-142.500000
3592,-142.500000
3593,-142.500000
3594,-142.500000
3595,-142.500000
3596,-142.500000
3597,-142.500000
3598,-142.500000
3599,-142.500000
3600,-142.500000
3601,-142.500000
3602,-142.500000
3603,-142.500000
3604,-142.500000
3605,-142.500000
3606,-142.500000
3607,-142.500000
3608,-142.500000
3609,-142.500000
3610,-142.500000
3611,-142.500000
3612,-142.500000
3613,-142.500000
3614,-142.500000
3615,-142.500000
3616,-142.500000
3617,-142.500000
3618,-142.500000
3619,-142.500000
3620,-142.500000
3621,-142.500000
3622,-142.500000
3623,-142.500000
3624,-142.500000
3625,-142.500000
3626,-142.500000
3627,-142.500000
3628,-142.500000
3629,-142.500000
3630,-142.500000
3631,-142.500000
3632,-142.500000
3633,-142.500000
3634,-142.500000
3635,-142.500000
3636,-142.500000
3637,-142.500000
3638,-142.500000
3639,-142.500000
3640,-142.500000
3641,-142.500000
3642,-142.500000
3643,-142.500000
3644,-142.500000
3645,-142.500000
3646,-142.500000
3647,-142.500000
3648,-142.500000
3649,-142.500000
3650,-142.500000
3651,-142.500000
3652,-142.500000
3653,-142.500000
3654,-142.500000
3655,-142.500000
3656,-142.500000
3657,-142.500000
3658,-142.500000
3659,-142.500000
3660,-142.500000
3661,-142.500000
3662,-142.500000
3663,-142.500000
3664,-142.500000
3665,-142.500000
3666,-142.500000
3667,-142.500000
3668,-142.500000
3669,-142.500000
3670,-142.500000
3671,-142.500000
3672,-142.500000
3673,-142.500000
3674,-142.500000
3675,-142.500000
3676,-142.500000
3677,-142.500000
3678,-142.500000
3679,-142.500000
3680,-142.500000
3681,-142.500000
3682,-142.500000
3683,-142.500000
3684,-142.500000
3685,-142.500000
3686,-142.500000
3687,-142.500000
3688,-142.500000
3689,-142.500000
3690,-142.500000
3691,-142.500000
3692,-142.500000
3693,-142.500000
3694,-142.500000
3695,-142.500000
3696,-142.500000
3697,-142.500000
3698,-142.500000
3699,-142.500000
3700,-142.500000
3701,-142.500000
3702,-142.500000
3703,-142.500000
3704,-142.500000
3705,-142.500000
3706,-142.500000
3707,-142.500000
3708,-142.500000
3709,-142.500000
3710,-142.500000
3711,-142.500000
3712,-142.500000
3713,-142.500000
3714,-142.500000
3715,-142.500000
3716,-142.500000
3717,-142.500000
3718,-142.500000
3719,-142.500000
3720,-142.500000
3721,-142.500000
3722,-142.500000
3723,-142.500000
3724,-142.500000
3725,-142.500000
3726,-142.500000
3727,-142.500000
3728,-142.500000
3729,-142.500000
3730,-142.500000
3731,-142.500000
3732,-142.500000
3733,-142.500000
3734,-142.500000
3735,-142.500000
3736,-142.500000
3737,-142.500000
3738,-142.500000
3739,-142.500000
3740,-142.500000
3741,-142.500000
3742,-142.500000
3743,-142.500000
3744,-142.500000
3745,-142.500000
3746,-142.500000
3747,-142.500000
3748,-142.500000
3749,-142.500000
3750,-142.500000
3751,-142.500000
3752,-142.500000
3753,-142.500000
3754,-142.500000
3755,-142.500000
3756,-142.500000
3757,-142.500000
3758,-142.500000
3759,-142.500000
3760,-142.500000
3761,-142.500000
3762,-142.500000
3763,-142.500000
3764,-142.500000
3765,-142.500000
3766,-142.500000
3767,-142.500000
3768,-142.500000
3769,-142.500000
3770,-142.500000
3771,-142.500000
3772,-142.500000
3773,-142.500000
3774,-142.500000
3775,-142.500000
3776,-142.500000
3777,-142.500000
3778,-142.500000
3779,-142.500000
3780,-142.500000
3781,-142.500000
3782,-142.500000
3783,-142.500000
3784,-142.500000
3785,-142.500000
3786,-142.500000
3787,-142.500000
3788,-142.500000
3789,-142.500000
3790,-142.500000
3791,-142.500000
3792,-142.500000
3793,-142.500000
3794,-142.500000
3795,-142.500000
3796,-142.500000
3797,-142.500000
3798,-142.500000
3799,-142.500000
3800,-142.500000
3801,-142.500000
3802,-142.500000
3803,-142.500000
3804,-142.500000
3805,-142.500000
3806,-142.500000
3807,-142.500000
3808,-142.500000
3809,-142.500000
3810,-142.500000
3811,-142.500000
3812,-142.500000
3813,-142.500000
3814,-142.500000
3815,-142.500000
3816,-142.500000
3817,-142.500000
3818,-142.500000
3819,-142.500000
3820,-142.500000
3821,-142.500000
3822,-142.500000
3823,-142.500000
3824,-142.500000
3825,-142.500000
3826,-142.500000
3827,-142.500000
3828,-142.500000
3829,-142.500000
3830,-142.500000
3831,-142.500000
3832,-142.500000
3833,-142.500000
3834,-142.500000
3835,-142.500000
3836,-142.500000
3837,-142.500000
3838,-142.500000
3839,-142.500000
3840,-142.500000
3841,-142.500000
3842,-142.500000
3843,-142.500000
3844,-142.500000
3845,-142.500000
3846,-142.500000
3847,-142.500000
3848,-142.500000
3849,-142.500000
3850,-142.500000
3851,-142.500000
3852,-142.500000
3853,-142.500000
3854,-142.500000
3855,-142.500000
3856,-142.500000
3857,-142.500000
3858,-142.500000
3859,-142.500000
3860,-142.500000
3861,-142.500000
3862,-142.500000
3863,-142.500000
3864,-142.500000
3865,-142.500000
3866,-142.500000
3867,-142.500000
3868,-142.500000
3869,-142.500000
3870,-142.500000
3871,-142.500000
3872,-142.500000
3873,-142.500000
3874,-142.500000
3875,-142.500000
3876,-142.500000
3877,-142.500000
3878,-142.500000
3879,-142.500000
3880,-142.500000
3881,-142.500000
3882,-142.500000
3883,-142.500000
3884,-142.500000
3885,-142.500000
3886,-142.500000
3887,-142.500000
3888,-142.500000
3889,-142.500000
3890,-142.500000
3891,-142.500000
3892,-142.500000
3893,-142.500000
3894,-142.500000
3895,-142.500000
3896,-142.500000
3897,-142.500000
3898,-142.500000
3899,-142.500000
3900,-142.500000
3901,-142.500000
3902,-142.500000
3903,-142.500000
3904,-142.500000
3905,-142.500000
3906,-142.500000
3907,-142.500000
3908,-142.500000
3909,-142.500000
3910,-142.500000
3911,-142.500000
3912,-142.500000
3913,-142.500000
3914,-142.500000
3915,-142.500000
3916,-142.500000
3917,-142.500000
3918,-142.500000
3919,-142.500000
3920,-142.500000
3921,-142.500000
3922,-142.500000
3923,-142.500000
3924,-142.500000
3925,-142.500000
3926,-142.500000
3927,-142.500000
3928,-142.500000
3929,-142.500000
3930,-142.500000
3931,-142.500000
3932,-142.500000
3933,-142.500000
3934,-142.500000
3935,-142.500000
3936,-142.500000
3937,-142.500000
3938,-142.500000
3939,-142.500000
3940,-142.500000
3941,-142.500000
3942,-142.500000
3943,-142.500000
3944,-142.500000
3945,-142.500000
3946,-142.500000
3947,-142.500000
3948,-142.500000
3949,-142.500000
3950,-142.500000
3951,-142.500000
3952,-142.500000
3953,-142.500000
3954,-142.500000
3955,-142.500000
3956,-142.500000
3957,-142.500000
3958,-142.500000
3959,-142.500000
3960,-142.500000
3961,-142.500000
3962,-142.500000
3963,-142.500000
3964,-142.500000
3965,-142.500000
3966,-142.500000
3967,-142.500000
3968,-142.500000
3969,-142.500000
3970,-142.500000
3971,-142.500000
3972,-142.500000
3973,-142.500000
3974,-142.500000
3975,-142.500000
3976,-142.500000
3977,-142.500000
3978,-142.500000
3979,-142.500000
3980,-142.500000
3981,-142.500000
3982,-142.500000
3983,-142.500000
3984,-142.500000
3985,-142.500000
3986,-142.500000
3987,-142.500000
3988,-142.500000
3989,-142.500000
3990,-142.500000
3991,-142.500000
3992,-142.500000
3993,-142.500000
3994,-142.500000
3995,-142.500000
3996,-142.500000
3997,-142.500000
3998,-142.500000
3999,-142.500000
4000,-142.500000
4001,-142.500000
4002,-142.500000
4003,-142.500000
4004,-142.500000
4005,-142.500000
4006,-142.500000
4007,-142.500000
4008,-142.500000
4009,-142.500000
4010,-142.500000
4011,-142.500000
4012,-142.500000
4013,-142.500000
4014,-142.500000
4015,-142.500000
4016,-142.500000
4017,-142.500000
4018,-142.500000
4019,-142.500000
4020,-142.500000
4021,-142.500000
4022,-142.500000
4023,-142.500000
4024,-142.500000
4025,-142.500000
4026,-142.500000
4027,-142.500000
4028,-142.500000
4029,-142.500000
4030,-142.500000
4031,-142.500000
4032,-142.500000
4033,-142.500000
4034,-142.500000
4035,-142.500000
4036,-142.500000
4037,-142.500000
4038,-142.500000
4039,-142.500000
4040,-142.500000
4041,-142.500000
4042,-142.500000
4043,-142.500000
4044,-142.500000
4045,-142.500000
4046,-142.500000
4047,-142.500000
4048,-142.500000
4049,-142.500000
4050,-142.500000
4051,-142.500000
4052,-142.500000
4053,-142.500000
4054,-142.500000
4055,-142.500000
4056,-142.500000
4057,-142.500000
4058,-142.500000
4059,-142.500000
4060,-142.500000
4061,-142.500000
4062,-142.500000
4063,-142.500000
4064,-142.500000
4065,-142.500000
4066,-142.500000
4067,-142.500000
4068,-142.500000
4069,-142.500000
4070,-142.500000
4071,-142.500000
4072,-142.500000
4073,-142.500000
4074,-142.500000
4075,-142.500000
4076,-142.500000
4077,-142.500000
4078,-142.500000
4079,-142.500000
4080,-142.500000
4081,-142.500000
4082,-142.500000
4083,-142.500000
4084,-142.500000
4085,-142.500000
4086,-142.500000
4087,-142.500000
4088,-142.500000
4089,-142.500000
4090,-142.500000
4091,-142.500000
4092,-142.500000
4093,-142.500000
4094,-142.500000
4095,-142.500000
4096,-142.500000
4097,-142.500000
4098,-142.500000
4099,-142.500000
4100,-142.500000
4101,-142.500000
4102,-142.500000
4103,-142.500000
4104,-142.500000
4105,-142.500000
4106,-142.500000
4107,-142.500000
4108,-142.500000
4109,-142.500000
4110,-142.500000
4111,-142.500000
4112,-142.500000
4113,-142.500000
4114,-142.500000
4115,-142.500000
4116,-142.500000
4117,-142.500000
4118,-142.500000
4119,-142.500000
4120,-142.500000
4121,-142.500000
4122,-142.500000
4123,-142.500000
4124,-142.500000
4125,-142.500000
4126,-142.500000
4127,-142.500000
4128,-142.500000
4129,-142.500000
4130,-142.500000
4131,-142.500000
4132,-142.500000
4133,-142.500000
4134,-142.500000
4135,-142.500000
4136,-142.500000
4137,-142.500000
4138,-142.500000
4139,-142.500000
4140,-142.500000
4141,-142.500000
4142,-142.500000
4143,-142.500000
4144,-142.500000
4145,-142.500000
4146,-142.500000
4147,-142.500000
4148,-142.500000
4149,-142.500000
4150,-142.500000
4151,-142.500000
4152,-142.500000
4153,-142.500000
4154,-142.500000
4155,-142.500000
4156,-142.500000
4157,-142.500000
4158,-142.500000
4159,-142.500000
4160,-142.500000
4161,-142.500000
4162,-142.500000
4163,-142.500000
4164,-142.500000
4165,-142.500000
4166,-142.500000
4167,-142.500000
4168,-142.500000
4169,-142.500000
4170,-142.500000
4171,-142.500000
4172,-142.500000
4173,-142.500000
4174,-142.500000
4175,-142.500000
4176,-142.500000
4177,-142.500000
4178,-142.500000
4179,-142.500000
4180,-142.500000
4181,-142.500000
4182,-142.500000
4183,-142.500000
4184,-142.500000
4185,-142.500000
4186,-142.500000
4187,-142.500000
4188,-142.500000
4189,-142.500000
4190,-142.500000
4191,-142.500000
4192,-142.500000
4193,-142.500000
4194,-142.500000
4195,-142.500000
4196,-142.500000
4197,-142.500000
4198,-142.500000
4199,-142.500000
4200,-142.500000
4201,-142.500000
4202,-142.500000
4203,-142.500000
4204,-142.500000
4205,-142.500000
4206,-142.500000
4207,-142.500000
4208,-142.500000
4209,-142.500000
4210,-142.500000
4211,-142.500000
4212,-142.500000
4213,-142.500000
4214,-142.500000
4215,-142.500000
4216,-142.500000
4217,-142.500000
4218,-142.500000
4219,-142.500000
4220,-142.500000
4221,-142.500000
4222,-142.500000
4223,-142.500000
4224,-142.500000
4225,-142.500000
4226,-142.500000
4227,-142.500000
4228,-142.500000
4229,-142.500000
4230,-142.500000
4231,-142.500000
4232,-142.500000
4233,-142.500000
4234,-142.500000
4235,-142.500000
4236,-142.500000
4237,-142.500000
4238,-142.500000
4239,-142.500000
4240,-142.500000
4241,-142.500000
4242,-142.500000
4243,-142.500000
4244,-142.500000
4245,-142.500000
4246,-142.500000
4247,-142.500000
4248,-142.500000
4249,-142.500000
4250,-142.500000
4251,-142.500000
4252,-142.500000
4253,-142.500000
4254,-142.500000
4255,-142.500000
4256,-142.500000
4257,-142.500000
4258,-142.500000
4259,-142.500000
4260,-142.500000
4261,-142.500000
4262,-142.500000
4263,-142.500000
4264,-142.500000
4265,-142.500000
4266,-142.500000
4267,-142.500000
4268,-142.500000
4269,-142.500000
4270,-142.500000
4271,-142.500000
4272,-142.500000
4273,-142.500000
4274,-142.500000
4275,-142.500000
4276,-142.500000
4277,-142.500000
4278,-142.500000
4279,-142.500000
4280,-142.500000
4281,-142.500000
4282,-142.500000
4283,-142.500000
4284,-142.500000
4285,-142.500000
4286,-142.500000
4287,-142.500000
4288,-142.500000
4289,-142.500000
4290,-142.500000
4291,-142.500000
4292,-142.500000
4293,-142.500000
4294,-142.500000
4295,-142.500000
4296,-142.500000
4297,-142.500000
4298,-142.500000
4299,-142.500000
4300,-142.500000
4301,-142.500000
4302,-142.500000
4303,-142.500000
4304,-142.500000
4305,-142.500000
4306,-142.500000
4307,-142.500000
4308,-142.500000
4309,-142.500000
4310,-142.500000
4311,-142.500000
4312,-142.500000
4313,-142.500000
4314,-142.500000
4315,-142.500000
4316,-142.500000
4317,-142.500000
4318,-142.500000
4319,-142.500000
4320,-142.500000
4321,-142.500000
4322,-142.500000
4323,-142.500000
4324,-142.500000
4325,-142.500000
4326,-142.500000
4327,-142.500000
4328,-142.500000
4329,-142.500000
4330,-142.500000
4331,-142.500000
4332,-142.500000
4333,-142.500000
4334,-142.500000
4335,-142.500000
4336,-142.500000
4337,-142.500000
4338,-142.500000
4339,-142.500000
4340,-142.500000
4341,-142.500000
4342,-142.500000
4343,-142.500000
4344,-142.500000
4345,-142.500000
4346,-142.500000
4347,-142.500000
4348,-142.500000
4349,-142.500000
4350,-142.500000
4351,-142.500000
4352,-142.500000
4353,-142.500000
4354,-142.500000
4355,-142.500000
4356,-142.500000
4357,-142.500000
4358,-142.500000
4359,-142.500000
4360,-142.500000
4361,-142.500000
4362,-142.500000
4363,-142.500000
4364,-142.500000
4365,-142.500000
4366,-142.500000
4367,-142.500000
4368,-142.500000
4369,-142.500000
4370,-142.500000
4371,-142.500000
4372,-142.500000
4373,-142.500000
4374,-142.500000
4375,-142.500000
4376,-142.500000
4377,-142.500000
4378,-142.500000
4379,-142.500000
4380,-142.500000
4381,-142.500000
4382,-142.500000
4383,-142.500000
4384,-142.500000
4385,-142.500000
4386,-142.500000
4387,-142.500000
4388,-142.500000
4389,-142.500000
4390,-142.500000
4391,-142.500000
4392,-142.500000
4393,-142.500000
4394,-142.500000
4395,-142.500000
4396,-142.500000
4397,-142.500000
4398,-142.500000
4399,-142.500000
4400,-142.500000
4401,-142.500000
4402,-142.500000
4403,-142.500000
4404,-142.500000
4405,-142.500000
4406,-142.500000
4407,-142.500000
4408,-142.500000
4409,-142.500000
4410,-142.500000
4411,-142.500000
4412,-142.500000
4413,-142.500000
4414,-142.500000
4415,-142.500000
4416,-142.500000
4417,-142.500000
4418,-142.500000
4419,-142.500000
4420,-142.500000
4421,-142.500000
4422,-142.500000
4423,-142.500000
4424,-142.500000
4425,-142.500000
4426,-142.500000
4427,-142.500000
4428,-142.500000
4429,-142.500000
4430,-142.500000
4431,-142.500000
4432,-142.500000
4433,-142.500000
4434,-142.500000
4435,-142.500000
4436,-142.500000
4437,-142.500000
4438,-142.500000
4439,-142.500000
4440,-142.500000
4441,-142.500000
4442,-142.500000
4443,-142.500000
4444,-142.500000
4445,-142.500000
4446,-142.500000
4447,-142.500000
4448,-142.500000
4449,-142.500000
4450,-142.500000
4451,-142.500000
4452,-142.500000
4453,-142.500000
4454,-142.500000
4455,-142.500000
4456,-142.500000
4457,-142.500000
4458,-142.500000
4459,-142.500000
4460,-142.500000
4461,-142.500000
4462,-142.500000
4463,-142.500000
4464,-142.500000
4465,-142.500000
4466,-142.500000
4467,-142.500000
4468,-142.500000
4469,-142.500000
4470,-142.500000
4471,-142.500000
4472,-142.500000
4473,-142.500000
4474,-142.500000
4475,-142.500000
4476,-142.500000
4477,-142.500000
4478,-142.500000
4479,-142.500000
4480,-142.500000
4481,-142.500000
4482,-142.500000
4483,-142.500000
4484,-142.500000
4485,-142.500000
4486,-142.500000
4487,-142.500000
4488,-142.500000
4489,-142.500000
4490,-142.500000
4491,-142.500000
4492,-142.500000
4493,-142.500000
4494,-142.500000
4495,-142.500000
4496,-142.500000
4497,-142.500000
4498,-142.500000
4499,-142.500000
4500,-142.500000
4501,-142.500000
4502,-142.500000
4503,-142.500000
4504,-142.500000
4505,-142.500000
4506,-142.500000
4507,-142.500000
4508,-142.500000
4509,-142.500000
4510,-142.500000
4511,-142.500000
4512,-142.500000
4513,-142.500000
4514,-142.500000
4515,-142.500000
4516,-142.500000
4517,-142.500000
4518,-142.500000
4519,-142.500000
4520,-142.500000
4521,-142.500000
4522,-142.500000
4523,-142.500000
4524,-142.500000
4525,-142.500000
4526,-142.500000
4527,-142.500000
4528,-142.500000
4529,-142.500000
4530,-142.500000
4531,-142.500000
4532,-142.500000
4533,-142.500000
4534,-142.500000
4535,-142.500000
4536,-142.500000
4537,-142.500000
4538,-142.500000
4539,-142.500000
4540,-142.500000
4541,-142.500000
4542,-142.500000
4543,-142.500000
4544,-142.500000
4545,-142.500000
4546,-142.500000
4547,-142.500000
4548,-142.500000
4549,-142.500000
4550,-142.500000
4551,-142.500000
4552,-142.500000
4553,-142.500000
4554,-142.500000
4555,-142.500000
4556,-142.500000
4557,-142.500000
4558,-142.500000
4559,-142.500000
4560,-142.500000
4561,-142.500000
4562,-142.500000
4563,-142.500000
4564,-142.500000
4565,-142.500000
4566,-142.500000
4567,-142.500000
4568,-142.500000
4569,-142.500000
4570,-142.500000
4571,-142.500000
4572,-142.500000
4573,-142.500000
4574,-142.500000
4575,-142.500000
4576,-142.500000
4577,-142.500000
4578,-142.500000
4579,-142.500000
4580,-142.500000
4581,-142.500000
4582,-142.500000
4583,-142.500000
4584,-142.500000
4585,-142.500000
4586,-142.500000
4587,-142.500000
4588,-142.500000
4589,-142.500000
4590,-142.500000
4591,-142.500000
4592,-142.500000
4593,-142.500000
4594,-142.500000
4595,-142.500000
4596,-142.500000
4597,-142.500000
4598,-142.500000
4599,-142.500000
4600,-142.500000
4601,-142.500000
4602,-142.500000
4603,-142.500000
4604,-142.500000
4605,-142.500000
4606,-142.500000
4607,-142.500000
4608,-142.500000
4609,-142.500000
4610,-142.500000
4611,-142.500000
4612,-142.500000
4613,-142.500000
4614,-142.500000
4615,-142.500000
4616,-142.500000
4617,-142.500000
4618,-142.500000
4619,-142.500000
4620,-142.500000
4621,-142.500000
4622,-142.500000
4623,-142.500000
4624,-142.500000
4625,-142.500000
4626,-142.500000
4627,-142.500000
4628,-142.500000
4629,-142.500000
4630,-142.500000
4631,-142.500000
4632,-142.500000
4633,-142.500000
4634,-142.500000
4635,-142.500000
4636,-142.500000
4637,-142.500000
4638,-142.500000
4639,-142.500000
4640,-142.500000
4641,-142.500000
4642,-142.500000
4643,-142.500000
4644,-142.500000
4645,-142.500000
4646,-142.500000
4647,-142.500000
4648,-142.500000
4649,-142.500000
4650,-142.500000
4651,-142.500000
4652,-142.500000
4653,-142.500000
4654,-142.500000
4655,-142.500000
4656,-142.500000
4657,-142.500000
4658,-142.500000
4659,-142.500000
4660,-142.500000
4661,-142.500000
4662,-142.500000
4663,-142.500000
4664,-142.500000
4665,-142.500000
4666,-142.500000
4667,-142.500000
4668,-142.500000
4669,-142.500000
4670,-142.500000
4671,-142.500000
4672,-142.500000
4673,-142.500000
4674,-142.500000
4675,-142.500000
4676,-142.500000
4677,-142.500000
4678,-142.500000
4679,-142.500000
4680,-142.500000
4681,-142.500000
4682,-142.500000
4683,-142.500000
4684,-142.500000
4685,-142.500000
4686,-142.500000
4687,-142.500000
4688,-142.500000
4689,-142.500000
4690,-142.500000
4691,-142.500000
4692,-142.500000
4693,-142.500000
4694,-142.500000
4695,-142.500000
4696,-142.500000
4697,-142.500000
4698,-142.500000
4699,-142.500000
4700,-142.500000
4701,-142.500000
4702,-142.500000
4703,-142.500000
4704,-142.500000
4705,-142.500000
4706,-142.500000
4707,-142.500000
4708,-142.500000
4709,-142.500000
4710,-142.500000
4711,-142.500000
4712,-142.500000
4713,-142.500000
4714,-142.500000
4715,-142.500000
4716,-142.500000
4717,-142.500000
4718,-142.500000
4719,-142.500000
4720,-142.500000
4721,-142.500000
4722,-142.500000
4723,-142.500000
4724,-142.500000
4725,-142.500000
4726,-142.500000
4727,-142.500000
4728,-142.500000
4729,-142.500000
4730,-142.500000
4731,-142.500000
4732,-142.500000
4733,-142.500000
4734,-142.500000
4735,-142.500000
4736,-142.500000
4737,-142.500000
4738,-142.500000
4739,-142.500000
4740,-142.500000
4741,-142.500000
4742,-142.500000
4743,-142.500000
4744,-142.500000
4745,-142.500000
4746,-142.500000
4747,-142.500000
4748,-142.500000
4749,-142.500000
4750,-142.500000
4751,-142.500000
4752,-142.500000
4753,-142.500000
4754,-142.500000
4755,-142.500000
4756,-142.500000
4757,-142.500000
4758,-142.500000
4759,-142.500000
4760,-142.500000
4761,-142.500000
4762,-142.500000
4763,-142.500000
4764,-142.500000
4765,-142.500000
4766,-142.500000
4767,-142.500000
4768,-142.500000
4769,-142.500000
4770,-142.500000
4771,-142.500000
4772,-142.500000
4773,-142.500000
4774,-142.500000
4775,-142.500000
4776,-142.500000
4777,-142.500000
4778,-142.500000
4779,-142.500000
4780,-142.500000
4781,-142.500000
4782,-142.500000
4783,-142.500000
4784,-142.500000
4785,-142.500000
4786,-142.500000
4787,-142.500000
4788,-142.500000
4789,-142.500000
4790,-142.500000
4791,-142.500000
4792,-142.500000
4793,-142.500000
4794,-142.500000
4795,-142.500000
4796,-142.500000
4797,-142.500000
4798,-142.500000
4799,-142.500000
4800,-142.500000
4801,-142.500000
4802,-142.500000
4803,-142.500000
4804,-142.500000
4805,-142.500000
4806,-142.500000
4807,-142.500000
4808,-142.500000
4809,-142.500000
4810,-142.500000
4811,-142.500000
4812,-142.500000
4813,-142.500000
4814,-142.500000
4815,-142.500000
4816,-142.500000
4817,-142.500000
4818,-142.500000
4819,-142.500000
4820,-142.500000
4821,-142.500000
4822,-142.500000
4823,-142.500000
4824,-142.500000
4825,-142.500000
4826,-142.500000
4827,-142.500000
4828,-142.500000
4829,-142.500000
4830,-142.500000
4831,-142.500000
4832,-142.500000
4833,-142.500000
4834,-142.500000
4835,-142.500000
4836,-142.500000
4837,-142.500000
4838,-142.500000
4839,-142.500000
4840,-142.500000
4841,-142.500000
4842,-142.500000
4843,-142.500000
4844,-142.500000
4845,-142.500000
4846,-142.500000
4847,-142.500000
4848,-142.500000
4849,-142.500000
4850,-142.500000
4851,-142.500000
4852,-142.500000
4853,-142.500000
4854,-142.500000
4855,-142.500000
4856,-142.500000
4857,-142.500000
4858,-142.500000
4859,-142.500000
4860,-142.500000
4861,-142.500000
4862,-142.500000
4863,-142.500000
4864,-142.500000
4865,-142.500000
4866,-142.500000
4867,-142.500000
4868,-142.500000
4869,-142.500000
4870,-142.500000
4871,-142.500000
4872,-142.500000
4873,-142.500000
4874,-142.500000
4875,-142.500000
4876,-142.500000
4877,-142.500000
4878,-142.500000
4879,-142.500000
4880,-142.500000
4881,-142.500000
4882,-142.500000
4883,-142.500000
4884,-142.500000
4885,-142.500000
4886,-142.500000
4887,-142.500000
4888,-142.500000
4889,-142.500000
4890,-142.500000
4891,-142.500000
4892,-142.500000
4893,-142.500000
4894,-142.500000
4895,-142.500000
4896,-142.500000
4897,-142.500000
4898,-142.500000
4899,-142.500000
4900,-142.500000
4901,-142.500000
4902,-142.500000
4903,-142.500000
4904,-142.500000
4905,-142.500000
4906,-142.500000
4907,-142.500000
4908,-142.500000
4909,-142.500000
4910,-142.500000
4911,-142.500000
4912,-142.500000
4913,-142.500000
4914,-142.500000
4915,-142.500000
4916,-142.500000
4917,-142.500000
4918,-142.500000
4919,-142.500000
4920,-142.500000
4921,-142.500000
4922,-142.500000
4923,-142.500000
4924,-142.500000
4925,-142.500000
4926,-142.500000
4927,-142.500000
4928,-142.500000
4929,-142.500000
4930,-142.500000
4931,-142.500000
4932,-142.500000
4933,-142.500000
4934,-142.500000
4935,-142.500000
4936,-142.500000
4937,-142.500000
4938,-142.500000
4939,-142.500000
4940,-142.500000
4941,-142.500000
4942,-142.500000
4943,-142.500000
4944,-142.500000
4945,-142.500000
4946,-142.500000
4947,-142.500000
4948,-142.500000
4949,-142.500000
4950,-142.500000
4951,-142.500000
4952,-142.500000
4953,-142.500000
4954,-142.500000
4955,-142.500000
4956,-142.500000
4957,-142.500000
4958,-142.500000
4959,-142.500000
4960,-142.500000
4961,-142.500000
4962,-142.500000
4963,-142.500000
4964,-142.500000
4965,-142.500000
4966,-142.500000
4967,-142.500000
4968,-142.500000
4969,-142.500000
4970,-142.500000
4971,-142.500000
4972,-142.500000
4973,-142.500000
4974,-142.500000
4975,-142.500000
4976,-142.500000
4977,-142.500000
4978,-142.500000
4979,-142.500000
4980,-142.500000
4981,-142.500000
4982,-142.500000
4983,-142.500000
4984,-142.500000
4985,-142.500000
4986,-142.500000
4987,-142.500000
4988,-142.500000
4989,-142.500000
4990,-142.500000
4991,-142.500000
4992,-142.500000
4993,-142.500000
4994,-142.500000
4995,-142.500000
4996,-142.500000
4997,-142.500000
4998,-142.500000
4999,-142.500000
5000,-142.500000
5001,-142.500000
5002,-142.500000
5003,-142.500000
5004,-142.500000
5005,-142.500000
5006,-142.500000
5007,-142.500000
5008,-142.500000
5009,-142.500000
5010,-142.500000
5011,-142.500000
5012,-142.500000
5013,-142.500000
5014,-142.500000
5015,-142.500000
5016,-142.500000
5017,-142.500000
5018,-142.500000
5019,-142.500000
5020,-142.500000
5021,-142.500000
5022,-142.500000
5023,-142.500000
5024,-142.500000
5025,-142.500000
5026,-142.500000
5027,-142.500000
5028,-142.500000
5029,-142.500000
5030,-142.500000
5031,-142.500000
5032,-142.500000
5033,-142.500000
5034,-142.500000
5035,-142.500000
5036,-142.500000
5037,-142.500000
5038,-142.500000
5039,-142.500000
5040,-142.500000
5041,-142.500000
5042,-142.500000
5043,-142.500000
5044,-142.500000
5045,-142.500000
5046,-142.500000
5047,-142.500000
5048,-142.500000
5049,-142.500000
5050,-142.500000
5051,-142.500000
5052,-142.500000
5053,-142.500000
5054,-142.500000
5055,-142.500000
5056,-142.500000
5057,-142.500000
5058,-142.500000
5059,-142.500000
5060,-142.500000
5061,-142.500000
5062,-142.500000
5063,-142.500000
5064,-142.500000
5065,-142.500000
5066,-142.500000
5067,-142.500000
5068,-142.500000
5069,-142.500000
5070,-142.500000
5071,-142.500000
5072,-142.500000
5073,-142.500000
5074,-142.500000
5075,-142.500000
5076,-142.500000
5077,-142.500000
5078,-142.500000
5079,-142.500000
5080,-142.500000
5081,-142.500000
5082,-142.500000
5083,-142.500000
5084,-142.500000
5085,-142.500000
5086,-142.500000
5087,-142.500000
5088,-142.500000
5089,-142.500000
5090,-142.500000
5091,-142.500000
5092,-142.500000
5093,-142.500000
5094,-142.500000
5095,-142.500000
5096,-142.500000
5097,-142.500000
5098,-142.500000
5099,-142.500000
5100,-142.500000
5101,-142.500000
5102,-142.500000
5103,-142.500000
5104,-142.500000
5105,-142.500000
5106,-142.500000
5107,-142.500000
5108,-142.500000
5109,-142.500000
5110,-142.500000
5111,-142.500000
5112,-142.500000
5113,-142.500000
5114,-142.500000
5115,-142.500000
5116,-142.500000
5117,-142.500000
5118,-142.500000
5119,-142.500000
5120,-142.500000
5121,-142.500000
5122,-142.500000
5123,-142.500000
5124,-142.500000
5125,-142.500000
5126,-142.500000
5127,-142.500000
5128,-142.500000
5129,-142.500000
5130,-142.500000
5131,-142.500000
5132,-142.500000
5133,-142.500000
5134,-142.500000
5135,-142.500000
5136,-142.500000
5137,-142.500000
5138,-142.500000
5139,-142.500000
5140,-142.500000
5141,-142.500000
5142,-142.500000
5143,-142.500000
5144,-142.500000
5145,-142.500000
5146,-142.500000
5147,-142.500000
5148,-142.500000
5149,-142.500000
5150,-142.500000
5151,-142.500000
5152,-142.500000
5153,-142.500000
5154,-142.500000
5155,-142.500000
5156,-142.500000
5157,-142.500000
5158,-142.500000
5159,-142.500000
5160,-142.500000
5161,-142.500000
5162,-142.500000
5163,-142.500000
5164,-142.500000
5165,-142.500000
5166,-142.500000
5167,-142.500000
5168,-142.500000
5169,-142.500000
5170,-142.500000
5171,-142.500000
5172,-142.500000
5173,-142.500000
5174,-142.500000
5175,-142.500000
5176,-142.500000
5177,-142.500000
5178,-142.500000
5179,-142.500000
5180,-142.500000
5181,-142.500000
5182,-142.500000
5183,-142.500000
5184,-142.500000
5185,-142.500000
5186,-142.500000
5187,-142.500000
5188,-142.500000
5189,-142.500000
5190,-142.500000
5191,-142.500000
5192,-142.500000
5193,-142.500000
5194,-142.500000
5195,-142.500000
5196,-142.500000
5197,-142.500000
5198,-142.500000
5199,-142.500000
5200,-142.500000
5201,-142.500000
5202,-142.500000
5203,-142.500000
5204,-142.500000
5205,-142.500000
5206,-142.500000
5207,-142.500000
5208,-142.500000
5209,-142.500000
5210,-142.500000
5211,-142.500000
5212,-142.500000
5213,-142.500000
5214,-142.500000
5215,-142.500000
5216,-142.500000
5217,-142.500000
5218,-142.500000
5219,-142.500000
5220,-142.500000
5221,-142.500000
5222,-142.500000
5223,-142.500000
5224,-142.500000
5225,-142.500000
5226,-142.500000
5227,-142.500000
5228,-142.500000
5229,-142.500000
5230,-142.500000
5231,-142.500000
5232,-142.500000
5233,-142.500000
5234,-142.500000
5235,-142.500000
5236,-142.500000
5237,-142.500000
5238,-142.500000
5239,-142.500000
5240,-142.500000
5241,-142.500000
5242,-142.500000
5243,-142.500000
5244,-142.500000
5245,-142.500000
5246,-142.500000
5247,-142.500000
5248,-142.500000
5249,-142.500000
5250,-142.500000
5251,-142.500000
5252,-142.500000
5253,-142.500000
5254,-142.500000
5255,-142.500000
5256,-142.500000
5257,-142.500000
5258,-142.500000
5259,-142.500000
5260,-142.500000
5261,-142.500000
5262,-142.500000
5263,-142.500000
5264,-142.500000
5265,-142.500000
5266,-142.500000
5267,-142.500000
5268,-142.500000
5269,-142.500000
5270,-142.500000
5271,-142.500000
5272,-142.500000
5273,-142.500000
5274,-142.500000
5275,-142.500000
5276,-142.500000
5277,-142.500000
5278,-142.500000
5279,-142.500000
5280,-142.500000
5281,-142.500000
5282,-142.500000
5283,-142.500000
5284,-142.500000
5285,-142.500000
5286,-142.500000
5287,-142.500000
5288,-142.500000
5289,-142.500000
5290,-142.500000
5291,-142.500000
5292,-142.500000
5293,-142.500000
5294,-142.500000
5295,-142.500000
5296,-142.500000
5297,-142.500000
5298,-142.500000
5299,-142.500000
5300,-142.500000
5301,-142.500000
5302,-142.500000
5303,-142.500000
5304,-142.500000
5305,-142.500000
5306,-142.500000
5307,-142.500000
5308,-142.500000
5309,-142.500000
5310,-142.500000
5311,-142.500000
5312,-142.500000
5313,-142.500000
5314,-142.500000
5315,-142.500000
5316,-236.250000
5317,-142.500000
5318,-142.500000
5319,-142.500000
5320,-142.500000
5321,-142.500000
5322,-142.500000
5323,-142.500000
5324,-142.500000
5325,-142.500000
5326,-142.500000
5327,-142.500000
5328,-142.500000
5329,-142.500000
5330,-142.500000
5331,-142.500000
5332,-142.500000
5333,-142.500000
5334,-142.500000
5335,-142.500000
5336,-142.500000
5337,-142.500000
5338,-142.500000
5339,-142.500000
5340,-142.500000
5341,-142.500000
5342,-142.500000
5343,-142.500000
5344,-142.500000
5345,-142.500000
5346,-142.500000
5347,-142.500000
5348,-142.500000
5349,-142.500000
5350,-142.500000
5351,-142.500000
5352,-142.500000
5353,-142.500000
5354,-142.500000
5355,-142.500000
5356,-142.500000
5357,-142.500000
5358,-142.500000
5359,-142.500000
5360,-142.500000
5361,-142.500000
5362,-142.500000
5363,-142.500000
5364,-142.500000
5365,-142.500000
5366,-142.500000
5367,-142.500000
5368,-142.500000
5369,-142.500000
5370,-142.500000
5371,-142.500000
5372,-142.500000
5373,-142.500000
5374,-142.500000
5375,-142.500000
5376,-142.500000
5377,-142.500000
5378,-142.500000
5379,-142.500000
5380,-142.500000
5381,-142.500000
5382,-142.500000
5383,-142.500000
5384,-142.500000
5385,-142.500000
5386,-142.500000
5387,-142.500000
5388,-142.500000
5389,-142.500000
5390,-142.500000
5391,-142.500000
5392,-142.500000
5393,-142.500000
5394,-142.500000
5395,-142.500000
5396,-142.500000
5397,-142.500000
5398,-142.500000
5399,-142.500000
5400,-142.500000
5401,-142.500000
5402,-142.500000
5403,-142.500000
5404,-142.500000
5405,-142.500000
5406,-142.500000
5407,-142.500000
5408,-142.500000
5409,-142.500000
5410,-142.500000
5411,-142.500000
5412,-142.500000
5413,-142.500000
5414,-142.500000
5415,-142.500000
5416,-142.500000
5417,-142.500000
5418,-142.500000
5419,-142.500000
5420,-142.500000
5421,-142.500000
5422,-142.500000
5423,-142.500000
5424,-142.500000
5425,-142.500000
5426,-142.500000
5427,-142.500000
5428,-142.500000
5429,-142.500000
5430,-142.500000
5431,-142.500000
5432,-142.500000
5433,-142.500000
5434,-142.500000
5435,-142.500000
5436,-142.500000
5437,-142.500000
5438,-142.500000
5439,-142.500000
5440,-142.500000
5441,-142.500000
5442,-142.500000
5443,-142.500000
5444,-142.500000
5445,-142.500000
5446,-142.500000
5447,-142.500000
5448,-142.500000
5449,-142.500000
5450,-142.500000
5451,-142.500000
5452,-142.500000
5453,-142.500000
5454,-142.500000
5455,-142.500000
5456,-142.500000
5457,-142.500000
5458,-142.500000
5459,-142.500000
5460,-142.500000
5461,-142.500000
5462,-142.500000
5463,-142.500000
5464,-142.500000
5465,-142.500000
5466,-142.500000
5467,-142.500000
5468,-142.500000
5469,-142.500000
5470,-142.500000
5471,-142.500000
5472,-142.500000
5473,-142.500000
5474,-142.500000
5475,-142.500000
5476,-142.500000
5477,-142.500000
5478,-142.500000
5479,-142.500000
5480,-142.500000
5481,-142.500000
5482,-142.500000
5483,-142.500000
5484,-142.500000
5485,-142.500000
5486,-142.500000
5487,-142.500000
5488,-142.500000
5489,-142.500000
5490,-142.500000
5491,-142.500000
5492,-142.500000
5493,-142.500000
5494,-142.500000
5495,-142.500000
5496,-142.500000
5497,-142.500000
5498,-142.500000
5499,-142.500000
5500,-142.500000
5501,-142.500000
5502,-142.500000
5503,-142.500000
5504,-142.500000
5505,-142.500000
5506,-142.500000
5507,-142.500000
5508,-142.500000
5509,-142.500000
5510,-142.500000
5511,-142.500000
5512,-142.500000
5513,-142.500000
5514,-142.500000
5515,-142.500000
5516,-142.500000
5517,-142.500000
5518,-142.500000
5519,-142.500000
5520,-142.500000
5521,-142.500000
5522,-142.500000
5523,-142.500000
5524,-142.500000
5525,-142.500000
5526,-142.500000
5527,-142.500000
5528,-142.500000
5529,-142.500000
5530,-142.500000
5531,-142.500000
5532,-142.500000
5533,-142.500000
5534,-142.500000
5535,-142.500000
5536,-142.500000
5537,-142.500000
5538,-142.500000
5539,-142.500000
5540,-142.500000
5541,-142.500000
5542,-142.500000
5543,-142.500000
5544,-142.500000
5545,-142.500000
5546,-142.500000
5547,-142.500000
5548,-142.500000
5549,-142.500000
5550,-142.500000
5551,-142.500000
5552,-142.500000
5553,-142.500000
5554,-142.500000
5555,-142.500000
5556,-142.500000
5557,-142.500000
5558,-142.500000
5559,-142.500000
5560,-142.500000
5561,-142.500000
5562,-142.500000
5563,-142.500000
5564,-142.500000
5565,-142.500000
5566,-142.500000
5567,-142.500000
5568,-142.500000
5569,-142.500000
5570,-142.500000
5571,-142.500000
5572,-142.500000
5573,-142.500000
5574,-142.500000
5575,-142.500000
5576,-142.500000
5577,-142.500000
5578,-142.500000
5579,-142.500000
5580,-142.500000
5581,-142.500000
5582,-142.500000
5583,-142.500000
5584,-142.500000
5585,-142.500000
5586,-142.500000
5587,-142.500000
5588,-142.500000
5589,-142.500000
5590,-142.500000
5591,-142.500000
5592,-142.500000
5593,-142.500000
5594,-142.500000
5595,-142.500000
5596,-142.500000
5597,-142.500000
5598,-142.500000
5599,-142.500000
5600,-142.500000
5601,-142.500000
5602,-142.500000
5603,-142.500000
5604,-142.500000
5605,-142.500000
5606,-142.500000
5607,-142.500000
5608,-142.500000
5609,-142.500000
5610,-142.500000
5611,-142.500000
5612,-142.500000
5613,-142.500000
5614,-142.500000
5615,-142.500000
5616,-142.500000
5617,-142.500000
5618,-142.500000
5619,-142.500000
5620,-142.500000
5621,-142.500000
5622,-142.500000
5623,-142.500000
5624,-142.500000
5625,-142.500000
5626,-142.500000
5627,-142.500000
5628,-142.500000
5629,-142.500000
5630,-142.500000
5631,-142.500000
5632,-142.500000
5633,-142.500000
5634,-142.500000
5635,-142.500000
5636,-142.500000
5637,-142.500000
5638,-142.500000
5639,-142.500000
5640,-142.500000
5641,-142.500000
5642,-142.500000
5643,-142.500000
5644,-142.500000
5645,-142.500000
5646,-142.500000
5647,-142.500000
5648,-142.500000
5649,-142.500000
5650,-142.500000
5651,-142.500000
5652,-142.500000
5653,-142.500000
5654,-142.500000
5655,-142.500000
5656,-142.500000
5657,-142.500000
5658,-142.500000
5659,-142.500000
5660,-142.500000
5661,-142.500000
5662,-142.500000
5663,-142.500000
5664,-142.500000
5665,-142.500000
5666,-142.500000
5667,-142.500000
5668,-142.500000
5669,-142.500000
5670,-142.500000
5671,-142.500000
5672,-142.500000
5673,-142.500000
5674,-142.500000
5675,-142.500000
5676,-142.500000
5677,-142.500000
5678,-142.500000
5679,-142.500000
5680,-142.500000
5681,-142.500000
5682,-142.500000
5683,-142.500000
5684,-142.500000
5685,-142.500000
5686,-142.500000
5687,-142.500000
5688,-142.500000
5689,-142.500000
5690,-142.500000
5691,-142.500000
5692,-142.500000
5693,-142.500000
5694,-142.500000
5695,-142.500000
5696,-142.500000
5697,-142.500000
5698,-142.500000
5699,-142.500000
5700,-142.500000
5701,-142.500000
5702,-142.500000
5703,-142.500000
5704,-142.500000
5705,-142.500000
5706,-142.500000
5707,-142.500000
5708,-142.500000
5709,-142.500000
5710,-142.500000
5711,-142.500000
5712,-142.500000
5713,-142.500000
5714,-142.500000
5715,-142.500000
5716,-142.500000
5717,-142.500000
5718,-142.500000
5719,-142.500000
5720,-142.500000
5721,-142.500000
5722,-142.500000
5723,-142.500000
5724,-142.500000
5725,-142.500000
5726,-142.500000
5727,-142.500000
5728,-142.500000
5729,-142.500000
5730,-142.500000
5731,-142.500000
5732,-142.500000
5733,-142.500000
5734,-142.500000
5735,-142.500000
5736,-142.500000
5737,-142.500000
5738,-142.500000
5739,-142.500000
5740,-142.500000
5741,-142.500000
5742,-142.500000
5743,-142.500000
5744,-142.500000
5745,-142.500000
5746,-142.500000
5747,-142.500000
5748,-142.500000
5749,-142.500000
5750,-142.500000
5751,-142.500000
5752,-142.500000
5753,-142.500000
5754,-142.500000
5755,-142.500000
5756,-142.500000
5757,-142.500000
5758,-142.500000
5759,-142.500000
5760,-142.500000
5761,-142.500000
5762,-142.500000
5763,-142.500000
5764,-142.500000
5765,-142.500000
5766,-142.500000
5767,-142.500000
5768,-142.500000
5769,-142.500000
5770,-142.500000
5771,-142.500000
5772,-142.500000
5773,-142.500000
5774,-142.500000
5775,-142.500000
5776,-142.500000
5777,-142.500000
5778,-142.500000
5779,-142.500000
5780,-142.500000
5781,-142.500000
5782,-142.500000
5783,-142.500000
5784,-142.500000
5785,-142.500000
5786,-142.500000
5787,-142.500000
5788,-142.500000
5789,-142.500000
5790,-142.500000
5791,-142.500000
5792,-142.500000
5793,-142.500000
5794,-142.500000
5795,-142.500000
5796,-142.500000
5797,-142.500000
5798,-142.500000
5799,-142.500000
5800,-142.500000
5801,-142.500000
5802,-142.500000
5803,-142.500000
5804,-142.500000
5805,-142.500000
5806,-142.500000
5807,-142.500000
5808,-142.500000
5809,-142.500000
5810,-142.500000
5811,-142.500000
5812,-142.500000
5813,-142.500000
5814,-142.500000
5815,-142.500000
5816,-142.500000
5817,-142.500000
5818,-142.500000
5819,-142.500000
5820,-142.500000
5821,-142.500000
5822,-142.500000
5823,-142.500000
5824,-142.500000
5825,-142.500000
5826,-142.500000
5827,-142.500000
5828,-142.500000
5829,-142.500000
5830,-142.500000
5831,-142.500000
5832,-142.500000
5833,-142.500000
5834,-142.500000
5835,-142.500000
5836,-142.500000
5837,-142.500000
5838,-142.500000
5839,-142.500000
5840,-142.500000
5841,-142.500000
5842,-142.500000
5843,-142.500000
5844,-142.500000
5845,-142.500000
5846,-142.500000
5847,-142.500000
5848,-142.500000
5849,-142.500000
5850,-142.500000
5851,-142.500000
5852,-142.500000
5853,-142.500000
5854,-142.500000
5855,-142.500000
5856,-142.500000
5857,-142.500000
5858,-142.500000
5859,-142.500000
5860,-142.500000
5861,-142.500000
5862,-142.500000
5863,-142.500000
5864,-142.500000
5865,-142.500000
5866,-142.500000
5867,-142.500000
5868,-142.500000
5869,-142.500000
5870,-142.500000
5871,-142.500000
5872,-142.500000
5873,-142.500000
5874,-142.500000
5875,-142.500000
5876,-142.500000
5877,-142.500000
5878,-142.500000
5879,-142.500000
5880,-142.500000
5881,-142.500000
5882,-142.500000
5883,-142.500000
5884,-142.500000
5885,-142.500000
5886,-142.500000
5887,-142.500000
5888,-142.500000
5889,-142.500000
5890,-142.500000
5891,-142.500000
5892,-142.500000
5893,-142.500000
5894,-142.500000
5895,-142.500000
5896,-142.500000
5897,-142.500000
5898,-142.500000
5899,-142.500000
5900,-142.500000
5901,-142.500000
5902,-142.500000
5903,-142.500000
5904,-142.500000
5905,-142.500000
5906,-142.500000
5907,-142.500000
5908,-142.500000
5909,-142.500000
5910,-142.500000
5911,-142.500000
5912,-142.500000
5913,-142.500000
5914,-142.500000
5915,-142.500000
5916,-142.500000
5917,-142.500000
5918,-142.500000
5919,-142.500000
5920,-142.500000
5921,-142.500000
5922,-142.500000
5923,-142.500000
5924,-142.500000
5925,-142.500000
5926,-142.500000
5927,-142.500000
5928,-142.500000
5929,-142.500000
5930,-142.500000
5931,-142.500000
5932,-142.500000
5933,-142.500000
5934,-142.500000
5935,-142.500000
5936,-142.500000
5937,-142.500000
5938,-142.500000
5939,-142.500000
5940,-142.500000
5941,-142.500000
5942,-142.500000
5943,-142.500000
5944,-142.500000
5945,-142.500000
5946,-142.500000
5947,-142.500000
5948,-142.500000
5949,-142.500000
5950,-142.500000
5951,-142.500000
5952,-142.500000
5953,-142.500000
5954,-142.500000
5955,-142.500000
5956,-142.500000
5957,-142.500000
5958,-142.500000
5959,-142.500000
5960,-142.500000
5961,-142.500000
5962,-142.500000
5963,-142.500000
5964,-142.500000
5965,-142.500000
5966,-142.500000
5967,-142.500000
5968,-142.500000
5969,-142.500000
5970,-142.500000
5971,-142.500000
5972,-142.500000
5973,-142.500000
5974,-142.500000
5975,-142.500000
5976,-142.500000
5977,-142.500000
5978,-142.500000
5979,-142.500000
5980,-142.500000
5981,-142.500000
5982,-142.500000
5983,-142.500000
5984,-142.500000
5985,-142.500000
5986,-142.500000
5987,-142.500000
5988,-142.500000
5989,-142.500000
5990,-142.500000
5991,-142.500000
5992,-142.500000
5993,-142.500000
5994,-142.500000
5995,-142.500000
5996,-142.500000
5997,-142.500000
5998,-142.500000
5999,-142.500000
6000,-142.500000
6001,-142.500000
6002,-142.500000
6003,-142.500000
6004,-142.500000
6005,-142.500000
6006,-142.500000
6007,-142.500000
6008,-142.500000
6009,-142.500000
6010,-142.500000
6011,-142.500000
6012,-142.500000
6013,-142.500000
6014,-142.500000
6015,-142.500000
6016,-142.500000
6017,-142.500000
6018,-142.500000
6019,-142.500000
6020,-142.500000
6021,-142.500000
6022,-142.500000
6023,-142.500000
6024,-142.500000
6025,-142.500000
6026,-142.500000
6027,-142.500000
6028,-142.500000
6029,-142.500000
6030,-142.500000
6031,-142.500000
6032,-142.500000
6033,-142.500000
6034,-142.500000
6035,-142.500000
6036,-142.500000
6037,-142.500000
6038,-142.500000
6039,-142.500000
6040,-142.500000
6041,-142.500000
6042,-142.500000
6043,-142.500000
6044,-142.500000
6045,-142.500000
6046,-142.500000
6047,-142.500000
6048,-142.500000
6049,-142.500000
6050,-142.500000
6051,-142.500000
6052,-142.500000
6053,-142.500000
6054,-142.500000
6055,-142.500000
6056,-142.500000
6057,-142.500000
6058,-142.500000
6059,-142.500000
6060,-142.500000
6061,-142.500000
6062,-142.500000
6063,-142.500000
6064,-142.500000
6065,-142.500000
6066,-142.500000
6067,-142.500000
6068,-142.500000
6069,-142.500000
6070,-142.500000
6071,-142.500000
6072,-142.500000
6073,-142.500000
6074,-142.500000
6075,-142.500000
6076,-142.500000
6077,-142.500000
6078,-142.500000
6079,-142.500000
6080,-142.500000
6081,-142.500000
6082,-142.500000
6083,-142.500000
6084,-142.500000
6085,-142.500000
6086,-142.500000
6087,-142.500000
6088,-142.500000
6089,-142.500000
6090,-142.500000
6091,-142.500000
6092,-142.500000
6093,-142.500000
6094,-142.500000
6095,-142.500000
6096,-142.500000
6097,-142.500000
6098,-142.500000
6099,-142.500000
6100,-142.500000
6101,-142.500000
6102,-142.500000
6103,-142.500000
6104,-142.500000
6105,-142.500000
6106,-142.500000
6107,-142.500000
6108,-142.500000
6109,-142.500000
6110,-142.500000
6111,-142.500000
6112,-142.500000
6113,-142.500000
6114,-142.500000
6115,-142.500000
6116,-142.500000
6117,-142.500000
6118,-142.500000
6119,-142.500000
6120,-142.500000
6121,-142.500000
6122,-142.500000
6123,-142.500000
6124,-142.500000
6125,-142.500000
6126,-142.500000
6127,-142.500000
6128,-142.500000
6129,-142.500000
6130,-142.500000
6131,-142.500000
6132,-142.500000
6133,-142.500000
6134,-142.500000
6135,-142.500000
6136,-142.500000
6137,-142.500000
6138,-142.500000
6139,-142.500000
6140,-48.750000
6141,-142.500000
6142,-142.500000
6143,-142.500000
6144,-142.500000
6145,-142.500000
6146,-142.500000
6147,-142.500000
6148,-142.500000
6149,-142.500000
6150,-142.500000
6151,-142.500000
6152,-142.500000
6153,-142.500000
6154,-142.500000
6155,-142.500000
6156,-142.500000
6157,-142.500000
6158,-142.500000
6159,-142.500000
6160,-142.500000
6161,-142.500000
6162,-142.500000
6163,-142.500000
6164,-142.500000
6165,-142.500000
6166,-142.500000
6167,-142.500000
6168,-142.500000
6169,-142.500000
6170,-142.500000
6171,-142.500000
6172,-142.500000
6173,-142.500000
6174,-142.500000
6175,-142.500000
6176,-142.500000
6177,-142.500000
6178,-142.500000
6179,-142.500000
6180,-142.500000
6181,-142.500000
6182,-142.500000
6183,-142.500000
6184,-142.500000
6185,-142.500000
6186,-142.500000
6187,-142.500000
6188,-142.500000
6189,-142.500000
6190,-142.500000
6191,-142.500000
6192,-142.500000
6193,-142.500000
6194,-142.500000
6195,-142.500000
6196,-142.500000
6197,-142.500000
6198,-142.500000
6199,-142.500000
6200,-142.500000
6201,-142.500000
6202,-142.500000
6203,-142.500000
6204,-142.500000
6205,-142.500000
6206,-142.500000
6207,-142.500000
6208,-142.500000
6209,-142.500000
6210,-142.500000
6211,-142.500000
6212,-142.500000
6213,-142.500000
6214,-142.500000
6215,-142.500000
6216,-142.500000
6217,-142.500000
6218,-142.500000
6219,-142.500000
6220,-142.500000
6221,-142.500000
6222,-142.500000
6223,-142.500000
6224,-142.500000
6225,-142.500000
6226,-142.500000
6227,-142.500000
6228,-142.500000
6229,-142.500000
6230,-142.500000
6231,-142.500000
6232,-48.750000
6233,-142.500000
6234,-142.500000
6235,-142.500000
6236,-142.500000
6237,-142.500000
6238,-142.500000
6239,-142.500000
6240,-142.500000
6241,-142.500000
6242,-142.500000
6243,-142.500000
6244,-142.500000
6245,-142.500000
6246,-142.500000
6247,-142.500000
6248,-142.500000
6249,-142.500000
6250,-142.500000
6251,-142.500000
6252,-142.500000
6253,-142.500000
6254,-142.500000
6255,-142.500000
6256,-142.500000
6257,-142.500000
6258,-142.500000
6259,-142.500000
6260,-142.500000
6261,-142.500000
6262,-142.500000
6263,-142.500000
6264,-142.500000
6265,-142.500000
6266,-142.500000
6267,-142.500000
6268,-142.500000
6269,-142.500000
6270,-142.500000
6271,-142.500000
6272,-142.500000
6273,-142.500000
6274,-142.500000
6275,-142.500000
6276,-142.500000
6277,-142.500000
6278,-142.500000
6279,-142.500000
6280,-142.500000
6281,-142.500000
6282,-142.500000
6283,-142.500000
6284,-142.500000
6285,-142.500000
6286,-142.500000
6287,-142.500000
6288,-142.500000
6289,-142.500000
6290,-142.500000
6291,-142.500000
6292,-142.500000
6293,-142.500000
6294,-142.500000
6295,-142.500000
6296,-142.500000
6297,-142.500000
6298,-142.500000
6299,-142.500000
6300,-142.500000
6301,-142.500000
6302,-142.500000
6303,-142.500000
6304,-142.500000
6305,-142.500000
6306,-142.500000
6307,-142.500000
6308,-142.500000
6309,-142.500000
6310,-142.500000
6311,-142.500000
6312,-142.500000
6313,-142.500000
6314,-142.500000
6315,-142.500000
6316,-142.500000
6317,-142.500000
6318,-142.500000
6319,-142.500000
6320,-142.500000
6321,-142.500000
6322,-142.500000
6323,-142.500000
6324,-142.500000
6325,-142.500000
6326,-142.500000
6327,-142.500000
6328,-142.500000
6329,-142.500000
6330,-142.500000
6331,-142.500000
6332,-142.500000
6333,-142.500000
6334,-142.500000
6335,-142.500000
6336,-142.500000
6337,-142.500000
6338,-142.500000
6339,-142.500000
6340,-142.500000
6341,-142.500000
6342,-142.500000
6343,-142.500000
6344,-142.500000
6345,-142.500000
6346,-142.500000
6347,-142.500000
6348,-142.500000
6349,-142.500000
6350,-142.500000
6351,-142.500000
6352,-142.500000
6353,-142.500000
6354,-142.500000
6355,-142.500000
6356,-142.500000
6357,-142.500000
6358,-142.500000
6359,-142.500000
6360,-142.500000
6361,-142.500000
6362,-142.500000
6363,-142.500000
6364,-142.500000
6365,-142.500000
6366,-142.500000
6367,-142.500000
6368,-142.500000
6369,-142.500000
6370,-142.500000
6371,-142.500000
6372,-142.500000
6373,-142.500000
6374,-142.500000
6375,-142.500000
6376,-142.500000
6377,-142.500000
6378,-142.500000
6379,-142.500000
6380,-142.500000
6381,-142.500000
6382,-142.500000
6383,-142.500000
6384,-142.500000
6385,-142.500000
6386,-142.500000
6387,-142.500000
6388,-142.500000
6389,-142.500000
6390,-142.500000
6391,-142.500000
6392,-142.500000
6393,-142.500000
6394,-142.500000
6395,-142.500000
6396,-142.500000
6397,-142.500000
6398,-142.500000
6399,-142.500000
6400,-142.500000
6401,-142.500000
6402,-142.500000
6403,-142.500000
6404,-142.500000
6405,-142.500000
6406,-142.500000
6407,-142.500000
6408,-142.500000
6409,-142.500000
6410,-142.500000
6411,-142.500000
6412,-142.500000
6413,-142.500000
6414,-142.500000
6415,-142.500000
6416,-142.500000
6417,-142.500000
6418,-142.500000
6419,-142.500000
6420,-142.500000
6421,-142.500000
6422,-142.500000
6423,-142.500000
6424,-142.500000
6425,-142.500000
6426,-142.500000
6427,-142.500000
6428,-142.500000
6429,-142.500000
6430,-142.500000
6431,-142.500000
6432,-142.500000
6433,-142.500000
6434,-142.500000
6435,-142.500000
6436,-142.500000
6437,-142.500000
6438,-142.500000
6439,-142.500000
6440,-142.500000
6441,-142.500000
6442,-142.500000
6443,-142.500000
6444,-142.500000
6445,-142.500000
6446,-142.500000
6447,-142.500000
6448,-142.500000
6449,-142.500000
6450,-142.500000
6451,-142.500000
6452,-142.500000
6453,-142.500000
6454,-142.500000
6455,-142.500000
6456,-142.500000
6457,-142.500000
6458,-142.500000
6459,-142.500000
6460,-142.500000
6461,-142.500000
6462,-142.500000
6463,-142.500000
6464,-142.500000
6465,-142.500000
6466,-142.500000
6467,-142.500000
6468,-142.500000
6469,-142.500000
6470,-142.500000
6471,-142.500000
6472,-142.500000
6473,-142.500000
6474,-142.500000
6475,-142.500000
6476,-142.500000
6477,-142.500000
6478,-142.500000
6479,-142.500000
6480,-142.500000
6481,-142.500000
6482,-142.500000
6483,-142.500000
6484,-142.500000
6485,-142.500000
6486,-142.500000
6487,-142.500000
6488,-142.500000
6489,-142.500000
6490,-142.500000
6491,-142.500000
6492,-142.500000
6493,-142.500000
6494,-142.500000
6495,-142.500000
6496,-142.500000
6497,-142.500000
6498,-142.500000
6499,-142.500000
6500,-142.500000
6501,-142.500000
6502,-142.500000
6503,-142.500000
6504,-142.500000
6505,-142.500000
6506,-142.500000
6507,-142.500000
6508,-142.500000
6509,-142.500000
6510,-142.500000
6511,-142.500000
6512,-142.500000
6513,-142.500000
6514,-142.500000
6515,-142.500000
6516,-142.500000
6517,-142.500000
6518,-142.500000
6519,-142.500000
6520,-142.500000
6521,-142.500000
6522,-142.500000
6523,-142.500000
6524,-142.500000
6525,-142.500000
6526,-142.500000
6527,-142.500000
6528,-142.500000
6529,-142.500000
6530,-142.500000
6531,-142.500000
6532,-142.500000
6533,-142.500000
6534,-142.500000
6535,-142.500000
6536,-142.500000
6537,-142.500000
6538,-142.500000
6539,-142.500000
6540,-142.500000
6541,-142.500000
6542,-142.500000
6543,-142.500000
6544,-142.500000
6545,-142.500000
6546,-142.500000
6547,-142.500000
6548,-142.500000
6549,-142.500000
6550,-142.500000
6551,-142.500000
6552,-142.500000
6553,-142.500000
6554,-142.500000
6555,-142.500000
6556,-142.500000
6557,-142.500000
6558,-142.500000
6559,-142.500000
6560,-142.500000
6561,-142.500000
6562,-142.500000
6563,-142.500000
6564,-142.500000
6565,-142.500000
6566,-142.500000
6567,-142.500000
6568,-142.500000
6569,-142.500000
6570,-142.500000
6571,-142.500000
6572,-142.500000
6573,-142.500000
6574,-142.500000
6575,-142.500000
6576,-142.500000
6577,-142.500000
6578,-142.500000
6579,-142.500000
6580,-142.500000
6581,-142.500000
6582,-142.500000
6583,-142.500000
6584,-142.500000
6585,-142.500000
6586,-142.500000
6587,-142.500000
6588,-142.500000
6589,-142.500000
6590,-142.500000
6591,-142.500000
6592,-142.500000
6593,-142.500000
6594,-142.500000
6595,-142.500000
6596,-142.500000
6597,-142.500000
6598,-142.500000
6599,-142.500000
6600,-142.500000
6601,-142.500000
6602,-142.500000
6603,-142.500000
6604,-142.500000
6605,-142.500000
6606,-142.500000
6607,-142.500000
6608,-142.500000
6609,-142.500000
6610,-142.500000
6611,-142.500000
6612,-142.500000
6613,-142.500000
6614,-142.500000
6615,-142.500000
6616,-142.500000
6617,-142.500000
6618,-142.500000
6619,-142.500000
6620,-142.500000
6621,-142.500000
6622,-142.500000
6623,-142.500000
6624,-142.500000
6625,-142.500000
6626,-142.500000
6627,-142.500000
6628,-142.500000
6629,-142.500000
6630,-142.500000
6631,-142.500000
6632,-142.500000
6633,-142.500000
6634,-142.500000
6635,-142.500000
6636,-142.500000
6637,-142.500000
6638,-142.500000
6639,-142.500000
6640,-142.500000
6641,-142.500000
6642,-142.500000
6643,-142.500000
6644,-142.500000
6645,-142.500000
6646,-142.500000
6647,-142.500000
6648,-142.500000
6649,-142.500000
6650,-142.500000
6651,-142.500000
6652,-142.500000
6653,-142.500000
6654,-142.500000
6655,-142.500000
6656,-142.500000
6657,-142.500000
6658,-142.500000
6659,-142.500000
6660,-142.500000
6661,-142.500000
6662,-142.500000
6663,-142.500000
6664,-142.500000
6665,-142.500000
6666,-142.500000
6667,-142.500000
6668,-142.500000
6669,-142.500000
6670,-142.500000
6671,-142.500000
6672,-142.500000
6673,-142.500000
6674,-142.500000
6675,-142.500000
6676,-142.500000
6677,-142.500000
6678,-142.500000
6679,-142.500000
6680,-142.500000
6681,-142.500000
6682,-142.500000
6683,-142.500000
6684,-142.500000
6685,-142.500000
6686,-142.500000
6687,-142.500000
6688,-142.500000
6689,-142.500000
6690,-142.500000
6691,-142.500000
6692,-142.500000
6693,-142.500000
6694,-142.500000
6695,-142.500000
6696,-142.500000
6697,-142.500000
6698,-142.500000
6699,-142.500000
6700,-142.500000
6701,-142.500000
6702,-142.500000
6703,-142.500000
6704,-142.500000
6705,-142.500000
6706,-142.500000
6707,-142.500000
6708,-142.500000
6709,-142.500000
6710,-142.500000
6711,-142.500000
6712,-142.500000
6713,-142.500000
6714,-142.500000
6715,-48.750000
6716,-142.500000
6717,-142.500000
6718,-142.500000
6719,-142.500000
6720,-142.500000
6721,-142.500000
6722,-142.500000
6723,-142.500000
6724,-142.500000
6725,-142.500000
6726,-142.500000
6727,-142.500000
6728,-142.500000
6729,-142.500000
6730,-142.500000
6731,-142.500000
6732,-142.500000
6733,-142.500000
6734,-142.500000
6735,-142.500000
6736,-142.500000
6737,-142.500000
6738,-142.500000
6739,-142.500000
6740,-142.500000
6741,-142.500000
6742,-142.500000
6743,-142.500000
6744,-142.500000
6745,-142.500000
6746,-142.500000
6747,-142.500000
6748,-142.500000
6749,-142.500000
6750,-142.500000
6751,-142.500000
6752,-142.500000
6753,-142.500000
6754,-142.500000
6755,-142.500000
6756,-142.500000
6757,-142.500000
6758,-142.500000
6759,-142.500000
6760,-142.500000
6761,-142.500000
6762,-142.500000
6763,-142.500000
6764,-142.500000
6765,-142.500000
6766,-142.500000
6767,-142.500000
6768,-142.500000
6769,-142.500000
6770,-142.500000
6771,-142.500000
6772,-142.500000
6773,-142.500000
6774,-142.500000
6775,-142.500000
6776,-142.500000
6777,-142.500000
6778,-142.500000
6779,-142.500000
6780,-142.500000
6781,-142.500000
6782,-142.500000
6783,-142.500000
6784,-142.500000
6785,-142.500000
6786,-142.500000
6787,-142.500000
6788,-142.500000
6789,-142.500000
6790,-142.500000
6791,-142.500000
6792,-142.500000
6793,-142.500000
6794,-142.500000
6795,-142.500000
6796,-142.500000
6797,-142.500000
6798,-142.500000
6799,-142.500000
6800,-142.500000
6801,-142.500000
6802,-142.500000
6803,-142.500000
6804,-142.500000
6805,-142.500000
6806,-142.500000
6807,-142.500000
6808,-142.500000
6809,-142.500000
6810,-142.500000
6811,-142.500000
6812,-142.500000
6813,-142.500000
6814,-142.500000
6815,-142.500000
6816,-142.500000
6817,-142.500000
6818,-142.500000
6819,-142.500000
6820,-142.500000
6821,-142.500000
6822,-142.500000
6823,-142.500000
6824,-142.500000
6825,-142.500000
6826,-142.500000
6827,-142.500000
6828,-142.500000
6829,-142.500000
6830,-142.500000
6831,-142.500000
6832,-142.500000
6833,-142.500000
6834,-142.500000
6835,-142.500000
6836,-142.500000
6837,-142.500000
6838,-142.500000
6839,-142.500000
6840,-142.500000
6841,-142.500000
6842,-142.500000
6843,-142.500000
6844,-142.500000
6845,-142.500000
6846,-142.500000
6847,-142.500000
6848,-142.500000
6849,-142.500000
6850,-142.500000
6851,-142.500000
6852,-142.500000
6853,-142.500000
6854,-142.500000
6855,-142.500000
6856,-142.500000
6857,-142.500000
6858,-142.500000
6859,-142.500000
6860,-142.500000
6861,-142.500000
6862,-142.500000
6863,-142.500000
6864,-142.500000
6865,-142.500000
6866,-142.500000
6867,-142.500000
6868,-142.500000
6869,-142.500000
6870,-142.500000
6871,-142.500000
6872,-142.500000
6873,-142.500000
6874,-142.500000
6875,-142.500000
6876,-142.500000
6877,-142.500000
6878,-142.500000
6879,-142.500000
6880,-142.500000
6881,-142.500000
6882,-142.500000
6883,-142.500000
6884,-142.500000
6885,-142.500000
6886,-142.500000
6887,-142.500000
6888,-142.500000
6889,-142.500000
6890,-142.500000
6891,-142.500000
6892,-142.500000
6893,-142.500000
6894,-142.500000
6895,-142.500000
6896,-142.500000
6897,-142.500000
6898,-142.500000
6899,-142.500000
6900,-142.500000
6901,-142.500000
6902,-142.500000
6903,-142.500000
6904,-142.500000
6905,-142.500000
6906,-142.500000
6907,-142.500000
6908,-142.500000
6909,-142.500000
6910,-142.500000
6911,-142.500000
6912,-142.500000
6913,-142.500000
6914,-142.500000
6915,-142.500000
6916,-142.500000
6917,-142.500000
6918,-142.500000
6919,-142.500000
6920,-142.500000
6921,-142.500000
6922,-142.500000
6923,-142.500000
6924,-142.500000
6925,-142.500000
6926,-142.500000
6927,-142.500000
6928,-142.500000
6929,-142.500000
6930,-142.500000
6931,-142.500000
6932,-142.500000
6933,-142.500000
6934,-142.500000
6935,-142.500000
6936,-142.500000
6937,-142.500000
6938,-142.500000
6939,-142.500000
6940,-142.500000
6941,-142.500000
6942,-142.500000
6943,-142.500000
6944,-142.500000
6945,-142.500000
6946,-142.500000
6947,-142.500000
6948,-142.500000
6949,-142.500000
6950,-142.500000
6951,-142.500000
6952,-142.500000
6953,-142.500000
6954,-142.500000
6955,-142.500000
6956,-142.500000
6957,-142.500000
6958,-142.500000
6959,-142.500000
6960,-142.500000
6961,-142.500000
6962,-142.500000
6963,-142.500000
6964,-142.500000
6965,-142.500000
6966,-142.500000
6967,-142.500000
6968,-142.500000
6969,-142.500000
6970,-142.500000
6971,-142.500000
6972,-142.500000
6973,-142.500000
6974,-142.500000
6975,-142.500000
6976,-142.500000
6977,-142.500000
6978,-142.500000
6979,-142.500000
6980,-142.500000
6981,-142.500000
6982,-142.500000
6983,-142.500000
6984,-142.500000
6985,-142.500000
6986,-142.500000
6987,-142.500000
6988,-142.500000
6989,-142.500000
6990,-142.500000
6991,-142.500000
6992,-142.500000
6993,-142.500000
6994,-142.500000
6995,-142.500000
6996,-142.500000
6997,-142.500000
6998,-142.500000
6999,-142.500000
7000,-142.500000
7001,-142.500000
7002,-142.500000
7003,-142.500000
7004,-142.500000
7005,-142.500000
7006,-142.500000
7007,-142.500000
7008,-142.500000
7009,-142.500000
7010,-142.500000
7011,-142.500000
7012,-142.500000
7013,-142.500000
7014,-142.500000
7015,-142.500000
7016,-142.500000
7017,-142.500000
7018,-142.500000
7019,-142.500000
7020,-142.500000
7021,-142.500000
7022,-142.500000
7023,-142.500000
7024,-142.500000
7025,-142.500000
7026,-142.500000
7027,-142.500000
7028,-142.500000
7029,-142.500000
7030,-142.500000
7031,-142.500000
7032,-142.500000
7033,-142.500000
7034,-142.500000
7035,-142.500000
7036,-142.500000
7037,-142.500000
7038,-142.500000
7039,-142.500000
7040,-142.500000
7041,-142.500000
7042,-142.500000
7043,-142.500000
7044,-142.500000
7045,-142.500000
7046,-142.500000
7047,-142.500000
7048,-142.500000
7049,-142.500000
7050,-142.500000
7051,-142.500000
7052,-142.500000
7053,-142.500000
7054,-142.500000
7055,-142.500000
7056,-142.500000
7057,-142.500000
7058,-142.500000
7059,-142.500000
7060,-142.500000
7061,-142.500000
7062,-142.500000
7063,-142.500000
7064,-142.500000
7065,-142.500000
7066,-142.500000
7067,-142.500000
7068,-142.500000
7069,-142.500000
7070,-142.500000
7071,-142.500000
7072,-142.500000
7073,-142.500000
7074,-142.500000
7075,-142.500000
7076,-142.500000
7077,-142.500000
7078,-142.500000
7079,-142.500000
7080,-142.500000
7081,-142.500000
7082,-142.500000
7083,-142.500000
7084,-142.500000
7085,-142.500000
7086,-142.500000
7087,-142.500000
7088,-142.500000
7089,-142.500000
7090,-142.500000
7091,-142.500000
7092,-142.500000
7093,-142.500000
7094,-142.500000
7095,-142.500000
7096,-142.500000
7097,-142.500000
7098,-142.500000
7099,-142.500000
7100,-142.500000
7101,-142.500000
7102,-142.500000
7103,-142.500000
7104,-142.500000
7105,-142.500000
7106,-142.500000
7107,-142.500000
7108,-142.500000
7109,-142.500000
7110,-142.500000
7111,-142.500000
7112,-142.500000
7113,-142.500000
7114,-142.500000
7115,-142.500000
7116,-142.500000
7117,-142.500000
7118,-142.500000
7119,-142.500000
7120,-142.500000
7121,-142.500000
7122,-142.500000
7123,-142.500000
7124,-142.500000
7125,-142.500000
7126,-142.500000
7127,-142.500000
7128,-142.500000
7129,-142.500000
7130,-142.500000
7131,-142.500000
7132,-142.500000
7133,-142.500000
7134,-142.500000
7135,-142.500000
7136,-142.500000
7137,-142.500000
7138,-142.500000
7139,-142.500000
7140,-142.500000
7141,-142.500000
7142,-142.500000
7143,-142.500000
7144,-142.500000
7145,-142.500000
7146,-142.500000
7147,-142.500000
7148,-142.500000
7149,-142.500000
7150,-142.500000
7151,-142.500000
7152,-142.500000
7153,-142.500000
7154,-142.500000
7155,-142.500000
7156,-142.500000
7157,-142.500000
7158,-142.500000
7159,-142.500000
7160,-142.500000
7161,-142.500000
7162,-142.500000
7163,-142.500000
7164,-142.500000
7165,-142.500000
7166,-142.500000
7167,-142.500000
7168,-142.500000
7169,-142.500000
7170,-142.500000
7171,-142.500000
7172,-142.500000
7173,-142.500000
7174,-142.500000
7175,-142.500000
7176,-142.500000
7177,-142.500000
7178,-142.500000
7179,-142.500000
7180,-142.500000
7181,-142.500000
7182,-142.500000
7183,-142.500000
7184,-142.500000
7185,-142.500000
7186,-142.500000
7187,-142.500000
7188,-142.500000
7189,-142.500000
7190,-142.500000
7191,-142.500000
7192,-142.500000
7193,-142.500000
7194,-142.500000
7195,-142.500000
7196,-142.500000
7197,-142.500000
7198,-142.500000
7199,-142.500000
7200,-142.500000
7201,-142.500000
7202,-142.500000
7203,-142.500000
7204,-142.500000
7205,-142.500000
7206,-142.500000
7207,-142.500000
7208,-142.500000
7209,-142.500000
7210,-142.500000
7211,-142.500000
7212,-142.500000
7213,-142.500000
7214,-142.500000
7215,-142.500000
7216,-142.500000
7217,-142.500000
7218,-142.500000
7219,-142.500000
7220,-142.500000
7221,-142.500000
7222,-142.500000
7223,-142.500000
7224,-142.500000
7225,-142.500000
7226,-142.500000
7227,-142.500000
7228,-142.500000
7229,-142.500000
7230,-142.500000
7231,-142.500000
7232,-142.500000
7233,-142.500000
7234,-142.500000
7235,-142.500000
7236,-142.500000
7237,-142.500000
7238,-142.500000
7239,-142.500000
7240,-142.500000
7241,-142.500000
7242,-142.500000
7243,-142.500000
7244,-142.500000
7245,-142.500000
7246,-142.500000
7247,-142.500000
7248,-142.500000
7249,-142.500000
7250,-142.500000
7251,-142.500000
7252,-142.500000
7253,-142.500000
7254,-142.500000
7255,-142.500000
7256,-142.500000
7257,-142.500000
7258,-142.500000
7259,-142.500000
7260,-142.500000
7261,-142.500000
7262,-142.500000
7263,-142.500000
7264,-142.500000
7265,-142.500000
7266,-142.500000
7267,-142.500000
7268,-142.500000
7269,-142.500000
7270,-142.500000
7271,-142.500000
7272,-142.500000
7273,-142.500000
7274,-142.500000
7275,-142.500000
7276,-142.500000
7277,-142.500000
7278,-142.500000
7279,-142.500000
7280,-142.500000
7281,-142.500000
7282,-142.500000
7283,-142.500000
7284,-142.500000
7285,-142.500000
7286,-142.500000
7287,-142.500000
7288,-142.500000
7289,-142.500000
7290,-142.500000
7291,-142.500000
7292,-142.500000
7293,-142.500000
7294,-142.500000
7295,-142.500000
7296,-142.500000
7297,-142.500000
7298,-142.500000
7299,-142.500000
7300,-142.500000
7301,-142.500000
7302,-142.500000
7303,-142.500000
7304,-142.500000
7305,-142.500000
7306,-142.500000
7307,-142.500000
7308,-142.500000
7309,-142.500000
7310,-142.500000
7311,-142.500000
7312,-142.500000
7313,-142.500000
7314,-142.500000
7315,-142.500000
7316,-142.500000
7317,-142.500000
7318,-142.500000
7319,-142.500000
7320,-142.500000
7321,-142.500000
7322,-142.500000
7323,-142.500000
7324,-142.500000
7325,-142.500000
7326,-142.500000
7327,-142.500000
7328,-142.500000
7329,-142.500000
7330,-142.500000
7331,-142.500000
7332,-142.500000
7333,-142.500000
7334,-142.500000
7335,-142.500000
7336,-142.500000
7337,-142.500000
7338,-142.500000
7339,-142.500000
7340,-142.500000
7341,-142.500000
7342,-142.500000
7343,-142.500000
7344,-142.500000
7345,-142.500000
7346,-142.500000
7347,-142.500000
7348,-142.500000
7349,-142.500000
7350,-142.500000
7351,-142.500000
7352,-142.500000
7353,-142.500000
7354,-142.500000
7355,-142.500000
7356,-142.500000
7357,-142.500000
7358,-142.500000
7359,-142.500000
7360,-142.500000
7361,-142.500000
7362,-142.500000
7363,-142.500000
7364,-142.500000
7365,-142.500000
7366,-142.500000
7367,-142.500000
7368,-142.500000
7369,-142.500000
7370,-142.500000
7371,-142.500000
7372,-142.500000
7373,-142.500000
7374,-142.500000
7375,-142.500000
7376,-142.500000
7377,-142.500000
7378,-142.500000
7379,-142.500000
7380,-142.500000
7381,-142.500000
7382,-142.500000
7383,-142.500000
7384,-142.500000
7385,-142.500000
7386,-142.500000
7387,-142.500000
7388,-142.500000
7389,-142.500000
7390,-142.500000
7391,-142.500000
7392,-142.500000
7393,-142.500000
7394,-142.500000
7395,-142.500000
7396,-142.500000
7397,-142.500000
7398,-142.500000
7399,-142.500000
7400,-142.500000
7401,-142.500000
7402,-142.500000
7403,-142.500000
7404,-142.500000
7405,-142.500000
7406,-142.500000
7407,-142.500000
7408,-142.500000
7409,-142.500000
7410,-142.500000
7411,-142.500000
7412,-142.500000
7413,-142.500000
7414,-142.500000
7415,-142.500000
7416,-142.500000
7417,-142.500000
7418,-142.500000
7419,-142.500000
7420,-142.500000
7421,-142.500000
7422,-142.500000
7423,-142.500000
7424,-142.500000
7425,-142.500000
7426,-142.500000
7427,-142.500000
7428,-142.500000
7429,-142.500000
7430,-142.500000
7431,-142.500000
7432,-142.500000
7433,-142.500000
7434,-142.500000
7435,-142.500000
7436,-142.500000
7437,-142.500000
7438,-142.500000
7439,-142.500000
7440,-142.500000
7441,-142.500000
7442,-142.500000
7443,-142.500000
7444,-142.500000
7445,-142.500000
7446,-142.500000
7447,-142.500000
7448,-142.500000
7449,-142.500000
7450,-142.500000
7451,-142.500000
7452,-142.500000
7453,-142.500000
7454,-142.500000
7455,-142.500000
7456,-142.500000
7457,-142.500000
7458,-142.500000
7459,-142.500000
7460,-142.500000
7461,-142.500000
7462,-142.500000
7463,-142.500000
7464,-142.500000
7465,-142.500000
7466,-142.500000
7467,-142.500000
7468,-142.500000
7469,-142.500000
7470,-142.500000
7471,-142.500000
7472,-142.500000
7473,-142.500000
7474,-142.500000
7475,-142.500000
7476,-142.500000
7477,-142.500000
7478,-142.500000
7479,-142.500000
7480,-142.500000
7481,-142.500000
7482,-142.500000
7483,-142.500000
7484,-142.500000
7485,-142.500000
7486,-142.500000
7487,-142.500000
7488,-142.500000
7489,-142.500000
7490,-142.500000
7491,-142.500000
7492,-142.500000
7493,-142.500000
7494,-142.500000
7495,-142.500000
7496,-142.500000
7497,-142.500000
7498,-142.500000
7499,-142.500000
7500,-142.500000
7501,-142.500000
7502,-142.500000
7503,-142.500000
7504,-142.500000
7505,-142.500000
7506,-142.500000
7507,-142.500000
7508,-142.500000
7509,-142.500000
7510,-142.500000
7511,-142.500000
7512,-142.500000
7513,-142.500000
7514,-142.500000
7515,-142.500000
7516,-142.500000
7517,-142.500000
7518,-142.500000
7519,-142.500000
7520,-142.500000
7521,-142.500000
7522,-142.500000
7523,-142.500000
7524,-142.500000
7525,-142.500000
7526,-142.500000
7527,-142.500000
7528,-142.500000
7529,-142.500000
7530,-142.500000
7531,-142.500000
7532,-142.500000
7533,-142.500000
7534,-142.500000
7535,-142.500000
7536,-142.500000
7537,-142.500000
7538,-142.500000
7539,-142.500000
7540,-142.500000
7541,-142.500000
7542,-142.500000
7543,-142.500000
7544,-142.500000
7545,-142.500000
7546,-142.500000
7547,-142.500000
7548,-142.500000
7549,-142.500000
7550,-142.500000
7551,-142.500000
7552,-142.500000
7553,-142.500000
7554,-142.500000
7555,-142.500000
7556,-142.500000
7557,-142.500000
7558,-142.500000
7559,-142.500000
7560,-142.500000
7561,-142.500000
7562,-142.500000
7563,-142.500000
7564,-142.500000
7565,-142.500000
7566,-142.500000
7567,-142.500000
7568,-142.500000
7569,-142.500000
7570,-142.500000
7571,-142.500000
7572,-142.500000
7573,-142.500000
7574,-142.500000
7575,-142.500000
7576,-142.500000
7577,-142.500000
7578,-142.500000
7579,-142.500000
7580,-142.500000
7581,-142.500000
7582,-142.500000
7583,-142.500000
7584,-142.500000
7585,-142.500000
7586,-142.500000
7587,-142.500000
7588,-142.500000
7589,-142.500000
7590,-142.500000
7591,-142.500000
7592,-142.500000
7593,-142.500000
7594,-142.500000
7595,-142.500000
7596,-142.500000
7597,-142.500000
7598,-142.500000
7599,-142.500000
7600,-142.500000
7601,-142.500000
7602,-142.500000
7603,-142.500000
7604,-142.500000
7605,-142.500000
7606,-142.500000
7607,-142.500000
7608,-142.500000
7609,-142.500000
7610,-142.500000
7611,-142.500000
7612,-142.500000
7613,-142.500000
7614,-142.500000
7615,-142.500000
7616,-142.500000
7617,-142.500000
7618,-142.500000
7619,-142.500000
7620,-142.500000
7621,-142.500000
7622,-142.500000
7623,-142.500000
7624,-142.500000
7625,-142.500000
7626,-142.500000
7627,-142.500000
7628,-142.500000
7629,-142.500000
7630,-142.500000
7631,-142.500000
7632,-142.500000
7633,-142.500000
7634,-142.500000
7635,-142.500000
7636,-142.500000
7637,-142.500000
7638,-142.500000
7639,-142.500000
7640,-142.500000
7641,-142.500000
7642,-142.500000
7643,-142.500000
7644,-142.500000
7645,-142.500000
7646,-142.500000
7647,-142.500000
7648,-142.500000
7649,-142.500000
7650,-142.500000
7651,-142.500000
7652,-142.500000
7653,-142.500000
7654,-142.500000
7655,-142.500000
7656,-142.500000
7657,-142.500000
7658,-142.500000
7659,-142.500000
7660,-142.500000
7661,-142.500000
7662,-142.500000
7663,-142.500000
7664,-142.500000
7665,-142.500000
7666,-142.500000
7667,-142.500000
7668,-142.500000
7669,-142.500000
7670,-142.500000
7671,-142.500000
7672,-142.500000
7673,-142.500000
7674,-142.500000
7675,-142.500000
7676,-142.500000
7677,-142.500000
7678,-142.500000
7679,-142.500000
7680,-142.500000
7681,-142.500000
7682,-142.500000
7683,-142.500000
7684,-142.500000
7685,-142.500000
7686,-142.500000
7687,-142.500000
7688,-142.500000
7689,-142.500000
7690,-142.500000
7691,-142.500000
7692,-142.500000
7693,-142.500000
7694,-142.500000
7695,-142.500000
7696,-142.500000
7697,-142.500000
7698,-142.500000
7699,-142.500000
7700,-142.500000
7701,-142.500000
7702,-142.500000
7703,-142.500000
7704,-142.500000
7705,-142.500000
7706,-142.500000
7707,-142.500000
7708,-142.500000
7709,-142.500000
7710,-142.500000
7711,-142.500000
7712,-142.500000
7713,-142.500000
7714,-142.500000
7715,-142.500000
7716,-142.500000
7717,-142.500000
7718,-142.500000
7719,-142.500000
7720,-142.500000
7721,-142.500000
7722,-142.500000
7723,-142.500000
7724,-142.500000
7725,-142.500000
7726,-142.500000
7727,-142.500000
7728,-142.500000
7729,-142.500000
7730,-142.500000
7731,-142.500000
7732,-142.500000
7733,-142.500000
7734,-142.500000
7735,-142.500000
7736,-142.500000
7737,-142.500000
7738,-142.500000
7739,-142.500000
7740,-142.500000
7741,-142.500000
7742,-142.500000
7743,-142.500000
7744,-142.500000
7745,-142.500000
7746,-142.500000
7747,-142.500000
7748,-142.500000
7749,-142.500000
7750,-142.500000
7751,-142.500000
7752,-142.500000
7753,-142.500000
7754,-142.500000
7755,-142.500000
7756,-142.500000
7757,-142.500000
7758,-142.500000
7759,-142.500000
7760,-142.500000
7761,-142.500000
7762,-142.500000
7763,-142.500000
7764,-142.500000
7765,-142.500000
7766,-142.500000
7767,-142.500000
7768,-142.500000
7769,-142.500000
7770,-142.500000
7771,-142.500000
7772,-142.500000
7773,-142.500000
7774,-142.500000
7775,-142.500000
7776,-142.500000
7777,-142.500000
7778,-142.500000
7779,-142.500000
7780,-142.500000
7781,-142.500000
7782,-142.500000
7783,-142.500000
7784,-142.500000
7785,-142.500000
7786,-142.500000
7787,-142.500000
7788,-142.500000
7789,-142.500000
7790,-142.500000
7791,-142.500000
7792,-142.500000
7793,-142.500000
7794,-142.500000
7795,-142.500000
7796,-142.500000
7797,-142.500000
7798,-142.500000
7799,-142.500000
7800,-142.500000
7801,-142.500000
7802,-142.500000
7803,-142.500000
7804,-142.500000
7805,-142.500000
7806,-142.500000
7807,-142.500000
7808,-142.500000
7809,-142.500000
7810,-142.500000
7811,-142.500000
7812,-142.500000
7813,-142.500000
7814,-142.500000
7815,-142.500000
7816,-142.500000
7817,-142.500000
7818,-142.500000
7819,-142.500000
7820,-142.500000
7821,-142.500000
7822,-142.500000
7823,-142.500000
7824,-142.500000
7825,-142.500000
7826,-142.500000
7827,-142.500000
7828,-142.500000
7829,-142.500000
7830,-142.500000
7831,-142.500000
7832,-142.500000
7833,-142.500000
7834,-142.500000
7835,-142.500000
7836,-142.500000
7837,-142.500000
7838,-142.500000
7839,-142.500000
7840,-142.500000
7841,-142.500000
7842,-142.500000
7843,-142.500000
7844,-142.500000
7845,-142.500000
7846,-142.500000
7847,-142.500000
7848,-142.500000
7849,-142.500000
7850,-142.500000
7851,-142.500000
7852,-142.500000
7853,-142.500000
7854,-142.500000
7855,-142.500000
7856,-142.500000
7857,-142.500000
7858,-142.500000
7859,-142.500000
7860,-142.500000
7861,-142.500000
7862,-142.500000
7863,-142.500000
7864,-142.500000
7865,-142.500000
7866,-142.500000
7867,-142.500000
7868,-142.500000
7869,-142.500000
7870,-142.500000
7871,-142.500000
7872,-142.500000
7873,-142.500000
7874,-142.500000
7875,-142.500000
7876,-142.500000
7877,-142.500000
7878,-142.500000
7879,-48.750000
7880,-142.500000
7881,-142.500000
7882,-142.500000
7883,-142.500000
7884,-142.500000
7885,-142.500000
7886,-142.500000
7887,-142.500000
7888,-142.500000
7889,-142.500000
7890,-142.500000
7891,-142.500000
7892,-142.500000
7893,-142.500000
7894,-142.500000
7895,-142.500000
7896,-142.500000
7897,-142.500000
7898,-142.500000
7899,-142.500000
7900,-142.500000
7901,-142.500000
7902,-142.500000
7903,-142.500000
7904,-142.500000
7905,-142.500000
7906,-142.500000
7907,-142.500000
7908,-142.500000
7909,-142.500000
7910,-142.500000
7911,-142.500000
7912,-142.500000
7913,-142.500000
7914,-142.500000
7915,-142.500000
7916,-142.500000
7917,-142.500000
7918,-142.500000
7919,-142.500000
7920,-142.500000
7921,-142.500000
7922,-142.500000
7923,-142.500000
7924,-142.500000
7925,-142.500000
7926,-142.500000
7927,-142.500000
7928,-142.500000
7929,-142.500000
7930,-142.500000
7931,-142.500000
7932,-142.500000
7933,-142.500000
7934,-142.500000
7935,-142.500000
7936,-142.500000
7937,-142.500000
7938,-142.500000
7939,-142.500000
7940,-142.500000
7941,-142.500000
7942,-142.500000
7943,-142.500000
7944,-142.500000
7945,-142.500000
7946,-142.500000
7947,-142.500000
7948,-142.500000
7949,-142.500000
7950,-142.500000
7951,-142.500000
7952,-142.500000
7953,-142.500000
7954,-142.500000
7955,-142.500000
7956,-142.500000
7957,-142.500000
7958,-142.500000
7959,-142.500000
7960,-142.500000
7961,-142.500000
7962,-142.500000
7963,-142.500000
7964,-142.500000
7965,-142.500000
7966,-142.500000
7967,-142.500000
7968,-142.500000
7969,-142.500000
7970,-142.500000
7971,-142.500000
7972,-142.500000
7973,-142.500000
7974,-142.500000
7975,-142.500000
7976,-142.500000
7977,-142.500000
7978,-142.500000
7979,-142.500000
7980,-142.500000
7981,-142.500000
7982,-142.500000
7983,-142.500000
7984,-142.500000
7985,-142.500000
7986,-142.500000
7987,-142.500000
7988,-142.500000
7989,-142.500000
7990,-142.500000
7991,-142.500000
7992,-142.500000
7993,-142.500000
7994,-142.500000
7995,-142.500000
7996,-142.500000
7997,-142.500000
7998,-142.500000
7999,-142.500000
8000,-142.500000
8001,-142.500000
8002,-142.500000
8003,-142.500000
8004,-142.500000
8005,-142.500000
8006,-142.500000
8007,-142.500000
8008,-142.500000
8009,-142.500000
8010,-142.500000
8011,-142.500000
8012,-142.500000
8013,-48.750000
8014,-142.500000
8015,-142.500000
8016,-142.500000
8017,-142.500000
8018,-142.500000
8019,-142.500000
8020,-142.500000
8021,-142.500000
8022,-142.500000
8023,-142.500000
8024,-142.500000
8025,-142.500000
8026,-142.500000
8027,-142.500000
8028,-142.500000
8029,-142.500000
8030,-142.500000
8031,-142.500000
8032,-142.500000
8033,-142.500000
8034,-142.500000
8035,-142.500000
8036,-142.500000
8037,-142.500000
8038,-142.500000
8039,-142.500000
8040,-142.500000
8041,-142.500000
8042,-142.500000
8043,-142.500000
8044,-142.500000
8045,-142.500000
8046,-142.500000
8047,-142.500000
8048,-142.500000
8049,-142.500000
8050,-142.500000
8051,-142.500000
8052,-142.500000
8053,-142.500000
8054,-142.500000
8055,-142.500000
8056,-142.500000
8057,-142.500000
8058,-142.500000
8059,-142.500000
8060,-142.500000
8061,-142.500000
8062,-142.500000
8063,-142.500000
8064,-142.500000
8065,-142.500000
8066,-142.500000
8067,-142.500000
8068,-142.500000
8069,-142.500000
8070,-142.500000
8071,-142.500000
8072,-48.750000
8073,-142.500000
8074,-142.500000
8075,-142.500000
8076,-142.500000
8077,-142.500000
8078,-142.500000
8079,-142.500000
8080,-142.500000
8081,-142.500000
8082,-142.500000
8083,-142.500000
8084,-142.500000
8085,-142.500000
8086,-142.500000
8087,-142.500000
8088,-142.500000
8089,-142.500000
8090,-142.500000
8091,-142.500000
8092,-142.500000
8093,-142.500000
8094,-142.500000
8095,-142.500000
8096,-142.500000
8097,-142.500000
8098,-142.500000
8099,-142.500000
8100,-142.500000
8101,-142.500000
8102,-142.500000
8103,-142.500000
8104,-142.500000
8105,-142.500000
8106,-142.500000
8107,-142.500000
8108,-142.500000
8109,-142.500000
8110,-142.500000
8111,-142.500000
8112,-142.500000
8113,-142.500000
8114,-142.500000
8115,-142.500000
8116,-142.500000
8117,-142.500000
8118,-142.500000
8119,-142.500000
8120,-142.500000
8121,-142.500000
8122,-142.500000
8123,-142.500000
8124,-142.500000
8125,-142.500000
8126,-142.500000
8127,-142.500000
8128,-142.500000
8129,-142.500000
8130,-142.500000
8131,-142.500000
8132,-142.500000
8133,-142.500000
8134,-142.500000
8135,-142.500000
8136,-142.500000
8137,-142.500000
8138,-142.500000
8139,-142.500000
8140,-142.500000
8141,-142.500000
8142,-142.500000
8143,-142.500000
8144,-142.500000
8145,-142.500000
8146,-142.500000
8147,-142.500000
8148,-142.500000
8149,-142.500000
8150,-142.500000
8151,-142.500000
8152,-142.500000
8153,-142.500000
8154,-142.500000
8155,-142.500000
8156,-142.500000
8157,-142.500000
8158,-142.500000
8159,-142.500000
8160,-142.500000
8161,-142.500000
8162,-142.500000
8163,-142.500000
8164,-142.500000
8165,-142.500000
8166,-142.500000
8167,-142.500000
8168,-142.500000
8169,-142.500000
8170,-142.500000
8171,-142.500000
8172,-142.500000
8173,-142.500000
8174,-142.500000
8175,-142.500000
8176,-142.500000
8177,-142.500000
8178,-142.500000
8179,-142.500000
8180,-142.500000
8181,-142.500000
8182,-142.500000
8183,-142.500000
8184,-142.500000
8185,-142.500000
8186,-142.500000
8187,-142.500000
8188,-142.500000
8189,-142.500000
8190,-142.500000
8191,-142.500000
8192,-142.500000
8193,-142.500000
8194,-142.500000
8195,-142.500000
8196,-142.500000
8197,-142.500000
8198,-142.500000
8199,-142.500000
8200,-142.500000
8201,-142.500000
8202,-142.500000
8203,-142.500000
8204,-142.500000
8205,-142.500000
8206,-142.500000
8207,-142.500000
8208,-142.500000
8209,-142.500000
8210,-142.500000
8211,-142.500000
8212,-142.500000
8213,-142.500000
8214,-142.500000
8215,-142.500000
8216,-142.500000
8217,-142.500000
8218,-142.500000
8219,-142.500000
8220,-142.500000
8221,-142.500000
8222,-142.500000
8223,-142.500000
8224,-142.500000
8225,-142.500000
8226,-142.500000
8227,-142.500000
8228,-142.500000
8229,-142.500000
8230,-142.500000
8231,-142.500000
8232,-142.500000
8233,-142.500000
8234,-142.500000
8235,-142.500000
8236,-142.500000
8237,-142.500000
8238,-142.500000
8239,-142.500000
8240,-142.500000
8241,-142.500000
8242,-142.500000
8243,-142.500000
8244,-142.500000
8245,-142.500000
8246,-142.500000
8247,-142.500000
8248,-142.500000
8249,-142.500000
8250,-142.500000
8251,-142.500000
8252,-142.500000
8253,-142.500000
8254,-142.500000
8255,-142.500000
8256,-142.500000
8257,-142.500000
8258,-142.500000
8259,-142.500000
8260,-142.500000
8261,-142.500000
8262,-142.500000
8263,-142.500000
8264,-142.500000
8265,-142.500000
8266,-142.500000
8267,-142.500000
8268,-142.500000
8269,-142.500000
8270,-142.500000
8271,-142.500000
8272,-142.500000
8273,-142.500000
8274,-142.500000
8275,-142.500000
8276,-142.500000
8277,-142.500000
8278,-142.500000
8279,-142.500000
8280,-142.500000
8281,-142.500000
8282,-142.500000
8283,-142.500000
8284,-142.500000
8285,-142.500000
8286,-142.500000
8287,-142.500000
8288,-142.500000
8289,-142.500000
8290,-142.500000
8291,-142.500000
8292,-142.500000
8293,-142.500000
8294,-142.500000
8295,-142.500000
8296,-142.500000
8297,-142.500000
8298,-142.500000
8299,-142.500000
8300,-142.500000
8301,-142.500000
8302,-142.500000
8303,-142.500000
8304,-142.500000
8305,-142.500000
8306,-142.500000
8307,-142.500000
8308,-142.500000
8309,-142.500000
8310,-142.500000
8311,-142.500000
8312,-142.500000
8313,-142.500000
8314,-142.500000
8315,-142.500000
8316,-142.500000
8317,-142.500000
8318,-142.500000
8319,-142.500000
8320,-142.500000
8321,-142.500000
8322,-142.500000
8323,-142.500000
8324,-142.500000
8325,-142.500000
8326,-142.500000
8327,-142.500000
8328,-142.500000
8329,-142.500000
8330,-142.500000
8331,-142.500000
8332,-142.500000
8333,-142.500000
8334,-142.500000
8335,-142.500000
8336,-142.500000
8337,-142.500000
8338,-142.500000
8339,-142.500000
8340,-142.500000
8341,-142.500000
8342,-142.500000
8343,-142.500000
8344,-142.500000
8345,-142.500000
8346,-142.500000
8347,-142.500000
8348,-142.500000
8349,-142.500000
8350,-142.500000
8351,-142.500000
8352,-142.500000
8353,-142.500000
8354,-142.500000
8355,-142.500000
8356,-142.500000
8357,-142.500000
8358,-142.500000
8359,-142.500000
8360,-142.500000
8361,-142.500000
8362,-142.500000
8363,-142.500000
8364,-142.500000
8365,-142.500000
8366,-142.500000
8367,-142.500000
8368,-142.500000
8369,-142.500000
8370,-142.500000
8371,-142.500000
8372,-142.500000
8373,-142.500000
8374,-142.500000
8375,-142.500000
8376,-142.500000
8377,-142.500000
8378,-142.500000
8379,-142.500000
8380,-142.500000
8381,-142.500000
8382,-142.500000
8383,-142.500000
8384,-142.500000
8385,-142.500000
8386,-142.500000
8387,-142.500000
8388,-142.500000
8389,-142.500000
8390,-142.500000
8391,-142.500000
8392,-142.500000
8393,-142.500000
8394,-142.500000
8395,-142.500000
8396,-142.500000
8397,-142.500000
8398,-142.500000
8399,-142.500000
8400,-142.500000
8401,-142.500000
8402,-142.500000
8403,-142.500000
8404,-142.500000
8405,-142.500000
8406,-142.500000
8407,-142.500000
8408,-142.500000
8409,-142.500000
8410,-142.500000
8411,-142.500000
8412,-142.500000
8413,-142.500000
8414,-142.500000
8415,-142.500000
8416,-142.500000
8417,-142.500000
8418,-142.500000
8419,-142.500000
8420,-142.500000
8421,-142.500000
8422,-142.500000
8423,-142.500000
8424,-142.500000
8425,-142.500000
8426,-142.500000
8427,-142.500000
8428,-142.500000
8429,-142.500000
8430,-142.500000
8431,-142.500000
8432,-142.500000
8433,-142.500000
8434,-142.500000
8435,-142.500000
8436,-142.500000
8437,-142.500000
8438,-142.500000
8439,-142.500000
8440,-142.500000
8441,-142.500000
8442,-142.500000
8443,-142.500000
8444,-142.500000
8445,-142.500000
8446,-142.500000
8447,-142.500000
8448,-142.500000
8449,-142.500000
8450,-142.500000
8451,-142.500000
8452,-142.500000
8453,-142.500000
8454,-142.500000
8455,-142.500000
8456,-142.500000
8457,-142.500000
8458,-142.500000
8459,-142.500000
8460,-142.500000
8461,-142.500000
8462,-142.500000
8463,-142.500000
8464,-142.500000
8465,-142.500000
8466,-142.500000
8467,-142.500000
8468,-142.500000
8469,-48.750000
8470,-142.500000
8471,-142.500000
8472,-142.500000
8473,-142.500000
8474,-142.500000
8475,-142.500000
8476,-142.500000
8477,-142.500000
8478,-142.500000
8479,-142.500000
8480,-142.500000
8481,-142.500000
8482,-142.500000
8483,-142.500000
8484,-142.500000
8485,-142.500000
8486,-142.500000
8487,-142.500000
8488,-142.500000
8489,-142.500000
8490,-142.500000
8491,-142.500000
8492,-142.500000
8493,-142.500000
8494,-142.500000
8495,-142.500000
8496,-142.500000
8497,-142.500000
8498,-142.500000
8499,-142.500000
8500,-142.500000
8501,-142.500000
8502,-142.500000
8503,-142.500000
8504,-142.500000
8505,-142.500000
8506,-142.500000
8507,-142.500000
8508,-142.500000
8509,-142.500000
8510,-142.500000
8511,-142.500000
8512,-142.500000
8513,-142.500000
8514,-142.500000
8515,-142.500000
8516,-142.500000
8517,-142.500000
8518,-142.500000
8519,-142.500000
8520,-142.500000
8521,-142.500000
8522,-142.500000
8523,-142.500000
8524,-142.500000
8525,-142.500000
8526,-142.500000
8527,-142.500000
8528,-142.500000
8529,-142.500000
8530,-142.500000
8531,-142.500000
8532,-142.500000
8533,-142.500000
8534,-142.500000
8535,-142.500000
8536,-142.500000
8537,-142.500000
8538,-142.500000
8539,-142.500000
8540,-142.500000
8541,-142.500000
8542,-142.500000
8543,-142.500000
8544,-142.500000
8545,-142.500000
8546,-142.500000
8547,-142.500000
8548,-142.500000
8549,-142.500000
8550,-142.500000
8551,-142.500000
8552,-142.500000
8553,-142.500000
8554,-142.500000
8555,-142.500000
8556,-142.500000
8557,-142.500000
8558,-142.500000
8559,-142.500000
8560,-142.500000
8561,-142.500000
8562,-142.500000
8563,-142.500000
8564,-142.500000
8565,-142.500000
8566,-142.500000
8567,-142.500000
8568,-142.500000
8569,-142.500000
8570,-142.500000
8571,-142.500000
8572,-142.500000
8573,-142.500000
8574,-142.500000
8575,-142.500000
8576,-142.500000
8577,-142.500000
8578,-142.500000
8579,-142.500000
8580,-142.500000
8581,-142.500000
8582,-142.500000
8583,-142.500000
8584,-142.500000
8585,-142.500000
8586,-142.500000
8587,-142.500000
8588,-142.500000
8589,-142.500000
8590,-142.500000
8591,-142.500000
8592,-142.500000
8593,-142.500000
8594,-142.500000
8595,-142.500000
8596,-142.500000
8597,-142.500000
8598,-142.500000
8599,-142.500000
8600,-142.500000
8601,-142.500000
8602,-142.500000
8603,-142.500000
8604,-142.500000
8605,-142.500000
8606,-142.500000
8607,-142.500000
8608,-142.500000
8609,-142.500000
8610,-142.500000
8611,-142.500000
8612,-142.500000
8613,-142.500000
8614,-142.500000
8615,-142.500000
8616,-142.500000
8617,-142.500000
8618,-142.500000
8619,-142.500000
8620,-142.500000
8621,-142.500000
8622,-142.500000
8623,-142.500000
8624,-142.500000
8625,-142.500000
8626,-142.500000
8627,-142.500000
8628,-142.500000
8629,-142.500000
8630,-142.500000
8631,-142.500000
8632,-142.500000
8633,-142.500000
8634,-142.500000
8635,-142.500000
8636,-142.500000
8637,-142.500000
8638,-142.500000
8639,-142.500000
8640,-142.500000
8641,-142.500000
8642,-142.500000
8643,-142.500000
8644,-142.500000
8645,-142.500000
8646,-142.500000
8647,-142.500000
8648,-142.500000
8649,-142.500000
8650,-142.500000
8651,-142.500000
8652,-142.500000
8653,-142.500000
8654,-142.500000
8655,-142.500000
8656,-142.500000
8657,-142.500000
8658,-142.500000
8659,-142.500000
8660,-142.500000
8661,-142.500000
8662,-142.500000
8663,-142.500000
8664,-142.500000
8665,-142.500000
8666,-142.500000
8667,-142.500000
8668,-142.500000
8669,-142.500000
8670,-142.500000
8671,-142.500000
8672,-142.500000
8673,-142.500000
8674,-142.500000
8675,-142.500000
8676,-142.500000
8677,-142.500000
8678,-142.500000
8679,-142.500000
8680,-142.500000
8681,-142.500000
8682,-142.500000
8683,-142.500000
8684,-142.500000
8685,-142.500000
8686,-142.500000
8687,-142.500000
8688,-142.500000
8689,-142.500000
8690,-142.500000
8691,-142.500000
8692,-142.500000
8693,-142.500000
8694,-142.500000
8695,-142.500000
8696,-142.500000
8697,-142.500000
8698,-142.500000
8699,-142.500000
8700,-142.500000
8701,-142.500000
8702,-142.500000
8703,-142.500000
8704,-142.500000
8705,-142.500000
8706,-142.500000
8707,-142.500000
8708,-142.500000
8709,-142.500000
8710,-142.500000
8711,-142.500000
8712,-142.500000
8713,-142.500000
8714,-142.500000
8715,-142.500000
8716,-142.500000
8717,-142.500000
8718,-142.500000
8719,-142.500000
8720,-142.500000
8721,-142.500000
8722,-142.500000
8723,-142.500000
8724,-142.500000
8725,-142.500000
8726,-142.500000
8727,-142.500000
8728,-142.500000
8729,-142.500000
8730,-142.500000
8731,-142.500000
8732,-142.500000
8733,-142.500000
8734,-142.500000
8735,-142.500000
8736,-142.500000
8737,-142.500000
8738,-142.500000
8739,-142.500000
8740,-142.500000
8741,-142.500000
8742,-142.500000
8743,-142.500000
8744,-142.500000
8745,-142.500000
8746,-142.500000
8747,-142.500000
8748,-142.500000
8749,-142.500000
8750,-142.500000
8751,-142.500000
8752,-142.500000
8753,-142.500000
8754,-142.500000
8755,-142.500000
8756,-142.500000
8757,-142.500000
8758,-142.500000
8759,-142.500000
8760,-142.500000
8761,-142.500000
8762,-142.500000
8763,-142.500000
8764,-142.500000
8765,-142.500000
8766,-142.500000
8767,-142.500000
8768,-142.500000
8769,-142.500000
8770,-142.500000
8771,-142.500000
8772,-142.500000
8773,-142.500000
8774,-142.500000
8775,-142.500000
8776,-142.500000
8777,-142.500000
8778,-142.500000
8779,-142.500000
8780,-142.500000
8781,-142.500000
8782,-142.500000
8783,-142.500000
8784,-142.500000
8785,-142.500000
8786,-142.500000
8787,-142.500000
8788,-142.500000
8789,-142.500000
8790,-142.500000
8791,-142.500000
8792,-142.500000
8793,-142.500000
8794,-142.500000
8795,-142.500000
8796,-142.500000
8797,-142.500000
8798,-142.500000
8799,-142.500000
8800,-142.500000
8801,-142.500000
8802,-142.500000
8803,-142.500000
8804,-142.500000
8805,-142.500000
8806,-142.500000
8807,-142.500000
8808,-142.500000
8809,-142.500000
8810,-142.500000
8811,-142.500000
8812,-142.500000
8813,-142.500000
8814,-142.500000
8815,-142.500000
8816,-142.500000
8817,-142.500000
8818,-142.500000
8819,-142.500000
8820,-142.500000
8821,-142.500000
8822,-142.500000
8823,-142.500000
8824,-142.500000
8825,-142.500000
8826,-142.500000
8827,-142.500000
8828,-142.500000
8829,-142.500000
8830,-142.500000
8831,-142.500000
8832,-142.500000
8833,-142.500000
8834,-142.500000
8835,-142.500000
8836,-142.500000
8837,-142.500000
8838,-142.500000
8839,-142.500000
8840,-142.500000
8841,-142.500000
8842,-142.500000
8843,-142.500000
8844,-142.500000
8845,-142.500000
8846,-142.500000
8847,-142.500000
8848,-142.500000
8849,-142.500000
8850,-142.500000
8851,-142.500000
8852,-142.500000
8853,-142.500000
8854,-142.500000
8855,-142.500000
8856,-142.500000
8857,-142.500000
8858,-142.500000
8859,-142.500000
8860,-142.500000
8861,-142.500000
8862,-142.500000
8863,-142.500000
8864,-142.500000
8865,-142.500000
8866,-142.500000
8867,-142.500000
8868,-142.500000
8869,-142.500000
8870,-142.500000
8871,-142.500000
8872,-142.500000
8873,-142.500000
8874,-142.500000
8875,-142.500000
8876,-142.500000
8877,-142.500000
8878,-142.500000
8879,-142.500000
8880,-142.500000
8881,-142.500000
8882,-142.500000
8883,-142.500000
8884,-142.500000
8885,-142.500000
8886,-142.500000
8887,-142.500000
8888,-142.500000
8889,-142.500000
8890,-142.500000
8891,-142.500000
8892,-142.500000
8893,-142.500000
8894,-142.500000
8895,-142.500000
8896,-142.500000
8897,-142.500000
8898,-142.500000
8899,-142.500000
8900,-142.500000
8901,-142.500000
8902,-142.500000
8903,-142.500000
8904,-142.500000
8905,-142.500000
8906,-142.500000
8907,-142.500000
8908,-142.500000
8909,-142.500000
8910,-142.500000
8911,-142.500000
8912,-142.500000
8913,-142.500000
8914,-142.500000
8915,-142.500000
8916,-142.500000
8917,-142.500000
8918,-142.500000
8919,-142.500000
8920,-142.500000
8921,-142.500000
8922,-142.500000
8923,-142.500000
8924,-142.500000
8925,-142.500000
8926,-142.500000
8927,-142.500000
8928,-142.500000
8929,-142.500000
8930,-142.500000
8931,-142.500000
8932,-142.500000
8933,-142.500000
8934,-142.500000
8935,-142.500000
8936,-142.500000
8937,-142.500000
8938,-142.500000
8939,-142.500000
8940,-142.500000
8941,-142.500000
8942,-142.500000
8943,-142.500000
8944,-142.500000
8945,-142.500000
8946,-142.500000
8947,-142.500000
8948,-142.500000
8949,-142.500000
8950,-142.500000
8951,-142.500000
8952,-142.500000
8953,-142.500000
8954,-142.500000
8955,-142.500000
8956,-142.500000
8957,-142.500000
8958,-142.500000
8959,-142.500000
8960,-142.500000
8961,-142.500000
8962,-142.500000
8963,-142.500000
8964,-142.500000
8965,-142.500000
8966,-142.500000
8967,-142.500000
8968,-142.500000
8969,-142.500000
8970,-142.500000
8971,-142.500000
8972,-142.500000
8973,-142.500000
8974,-142.500000
8975,-142.500000
8976,-142.500000
8977,-142.500000
8978,-142.500000
8979,-142.500000
8980,-142.500000
8981,-142.500000
8982,-142.500000
8983,-142.500000
8984,-142.500000
8985,-142.500000
8986,-142.500000
8987,-142.500000
8988,-142.500000
8989,-142.500000
8990,-142.500000
8991,-142.500000
8992,-142.500000
8993,-142.500000
8994,-142.500000
8995,-142.500000
8996,-142.500000
8997,-142.500000
8998,-142.500000
8999,-142.500000
9000,-142.500000
9001,-142.500000
9002,-142.500000
9003,-142.500000
9004,-142.500000
9005,-142.500000
9006,-142.500000
9007,-142.500000
9008,-142.500000
9009,-142.500000
9010,-142.500000
9011,-142.500000
9012,-142.500000
9013,-142.500000
9014,-142.500000
9015,-142.500000
9016,-142.500000
9017,-142.500000
9018,-142.500000
9019,-142.500000
9020,-142.500000
9021,-142.500000
9022,-142.500000
9023,-142.500000
9024,-142.500000
9025,-142.500000
9026,-142.500000
9027,-142.500000
9028,-142.500000
9029,-142.500000
9030,-142.500000
9031,-142.500000
9032,-142.500000
9033,-142.500000
9034,-142.500000
9035,-142.500000
9036,-142.500000
9037,-142.500000
9038,-142.500000
9039,-142.500000
9040,-142.500000
9041,-142.500000
9042,-142.500000
9043,-142.500000
9044,-142.500000
9045,-142.500000
9046,-142.500000
9047,-142.500000
9048,-142.500000
9049,-142.500000
9050,-142.500000
9051,-142.500000
9052,-142.500000
9053,-142.500000
9054,-142.500000
9055,-142.500000
9056,-142.500000
9057,-142.500000
9058,-142.500000
9059,-142.500000
9060,-142.500000
9061,-142.500000
9062,-142.500000
9063,-142.500000
9064,-142.500000
9065,-142.500000
9066,-142.500000
9067,-142.500000
9068,-142.500000
9069,-142.500000
9070,-142.500000
9071,-142.500000
9072,-142.500000
9073,-142.500000
9074,-142.500000
9075,-142.500000
9076,-142.500000
9077,-142.500000
9078,-142.500000
9079,-142.500000
9080,-142.500000
9081,-142.500000
9082,-142.500000
9083,-142.500000
9084,-142.500000
9085,-142.500000
9086,-142.500000
9087,-142.500000
9088,-142.500000
9089,-142.500000
9090,-142.500000
9091,-142.500000
9092,-142.500000
9093,-142.500000
9094,-142.500000
9095,-142.500000
9096,-142.500000
9097,-142.500000
9098,-142.500000
9099,-142.500000
9100,-142.500000
9101,-142.500000
9102,-142.500000
9103,-142.500000
9104,-142.500000
9105,-142.500000
9106,-142.500000
9107,-142.500000
9108,-142.500000
9109,-142.500000
9110,-142.500000
9111,-142.500000
9112,-142.500000
9113,-142.500000
9114,-142.500000
9115,-142.500000
9116,-142.500000
9117,-142.500000
9118,-142.500000
9119,-142.500000
9120,-142.500000
9121,-142.500000
9122,-142.500000
9123,-142.500000
9124,-142.500000
9125,-142.500000
9126,-142.500000
9127,-142.500000
9128,-142.500000
9129,-142.500000
9130,-142.500000
9131,-142.500000
9132,-142.500000
9133,-142.500000
9134,-142.500000
9135,-142.500000
9136,-142.500000
9137,-142.500000
9138,-142.500000
9139,-142.500000
9140,-142.500000
9141,-142.500000
9142,-142.500000
9143,-142.500000
9144,-142.500000
9145,-142.500000
9146,-142.500000
9147,-142.500000
9148,-142.500000
9149,-142.500000
9150,-142.500000
9151,-142.500000
9152,-142.500000
9153,-142.500000
9154,-142.500000
9155,-142.500000
9156,-142.500000
9157,-142.500000
9158,-142.500000
9159,-142.500000
9160,-142.500000
9161,-142.500000
9162,-142.500000
9163,-142.500000
9164,-142.500000
9165,-142.500000
9166,-142.500000
9167,-142.500000
9168,-142.500000
9169,-142.500000
9170,-142.500000
9171,-142.500000
9172,-142.500000
9173,-142.500000
9174,-142.500000
9175,-142.500000
9176,-142.500000
9177,-142.500000
9178,-142.500000
9179,-142.500000
9180,-142.500000
9181,-142.500000
9182,-142.500000
9183,-142.500000
9184,-142.500000
9185,-142.500000
9186,-142.500000
9187,-142.500000
9188,-142.500000
9189,-142.500000
9190,-142.500000
9191,-142.500000
9192,-142.500000
9193,-142.500000
9194,-142.500000
9195,-142.500000
9196,-142.500000
9197,-142.500000
9198,-142.500000
9199,-142.500000
9200,-142.500000
9201,-142.500000
9202,-142.500000
9203,-142.500000
9204,-142.500000
9205,-142.500000
9206,-142.500000
9207,-142.500000
9208,-142.500000
9209,-142.500000
9210,-142.500000
9211,-142.500000
9212,-142.500000
9213,-142.500000
9214,-142.500000
9215,-142.500000
9216,-142.500000
9217,-142.500000
9218,-142.500000
9219,-142.500000
9220,-142.500000
9221,-142.500000
9222,-142.500000
9223,-142.500000
9224,-142.500000
9225,-142.500000
9226,-142.500000
9227,-142.500000
9228,-142.500000
9229,-142.500000
9230,-142.500000
9231,-142.500000
9232,-142.500000
9233,-142.500000
9234,-142.500000
9235,-142.500000
9236,-142.500000
9237,-142.500000
9238,-142.500000
9239,-142.500000
9240,-142.500000
9241,-142.500000
9242,-142.500000
9243,-142.500000
9244,-142.500000
9245,-142.500000
9246,-142.500000
9247,-142.500000
9248,-142.500000
9249,-142.500000
9250,-142.500000
9251,-142.500000
9252,-142.500000
9253,-142.500000
9254,-142.500000
9255,-142.500000
9256,-142.500000
9257,-142.500000
9258,-142.500000
9259,-142.500000
9260,-142.500000
9261,-142.500000
9262,-142.500000
9263,-142.500000
9264,-142.500000
9265,-142.500000
9266,-142.500000
9267,-142.500000
9268,-142.500000
9269,-142.500000
9270,-142.500000
9271,-142.500000
9272,-142.500000
9273,-142.500000
9274,-142.500000
9275,-142.500000
9276,-142.500000
9277,-142.500000
9278,-142.500000
9279,-142.500000
9280,-142.500000
9281,-142.500000
9282,-142.500000
9283,-142.500000
9284,-142.500000
9285,-142.500000
9286,-142.500000
9287,-142.500000
9288,-142.500000
9289,-142.500000
9290,-142.500000
9291,-142.500000
9292,-142.500000
9293,-142.500000
9294,-142.500000
9295,-142.500000
9296,-142.500000
9297,-142.500000
9298,-142.500000
9299,-142.500000
9300,-142.500000
9301,-142.500000
9302,-142.500000
9303,-142.500000
9304,-142.500000
9305,-142.500000
9306,-142.500000
9307,-142.500000
9308,-142.500000
9309,-142.500000
9310,-142.500000
9311,-142.500000
9312,-142.500000
9313,-142.500000
9314,-142.500000
9315,-142.500000
9316,-142.500000
9317,-142.500000
9318,-142.500000
9319,-142.500000
9320,-142.500000
9321,-142.500000
9322,-142.500000
9323,-142.500000
9324,-142.500000
9325,-142.500000
9326,-142.500000
9327,-142.500000
9328,-142.500000
9329,-142.500000
9330,-142.500000
9331,-142.500000
9332,-142.500000
9333,-142.500000
9334,-142.500000
9335,-142.500000
9336,-142.500000
9337,-142.500000
9338,-142.500000
9339,-142.500000
9340,-142.500000
9341,-142.500000
9342,-142.500000
9343,-142.500000
9344,-142.500000
9345,-142.500000
9346,-142.500000
9347,-142.500000
9348,-142.500000
9349,-142.500000
9350,-142.500000
9351,-142.500000
9352,-142.500000
9353,-142.500000
9354,-142.500000
9355,-142.500000
9356,-142.500000
9357,-142.500000
9358,-142.500000
9359,-142.500000
9360,-142.500000
9361,-142.500000
9362,-142.500000
9363,-142.500000
9364,-142.500000
9365,-142.500000
9366,-142.500000
9367,-142.500000
9368,-142.500000
9369,-142.500000
9370,-142.500000
9371,-142.500000
9372,-142.500000
9373,-142.500000
9374,-142.500000
9375,-142.500000
9376,-142.500000
9377,-142.500000
9378,-142.500000
9379,-142.500000
9380,-142.500000
9381,-142.500000
9382,-142.500000
9383,-142.500000
9384,-142.500000
9385,-142.500000
9386,-142.500000
9387,-142.500000
9388,-142.500000
9389,-142.500000
9390,-142.500000
9391,-142.500000
9392,-142.500000
9393,-142.500000
9394,-142.500000
9395,-142.500000
9396,-142.500000
9397,-142.500000
9398,-142.500000
9399,-142.500000
9400,-142.500000
9401,-142.500000
9402,-142.500000
9403,-142.500000
9404,-142.500000
9405,-142.500000
9406,-142.500000
9407,-142.500000
9408,-142.500000
9409,-142.500000
9410,-142.500000
9411,-142.500000
9412,-142.500000
9413,-142.500000
9414,-142.500000
9415,-142.500000
9416,-142.500000
9417,-142.500000
9418,-142.500000
9419,-142.500000
9420,-142.500000
9421,-142.500000
9422,-142.500000
9423,-142.500000
9424,-142.500000
9425,-142.500000
9426,-142.500000
9427,-142.500000
9428,-142.500000
9429,-142.500000
9430,-142.500000
9431,-142.500000
9432,-142.500000
9433,-142.500000
9434,-142.500000
9435,-142.500000
9436,-142.500000
9437,-142.500000
9438,-142.500000
9439,-142.500000
9440,-142.500000
9441,-142.500000
9442,-142.500000
9443,-142.500000
9444,-142.500000
9445,-142.500000
9446,-142.500000
9447,-142.500000
9448,-142.500000
9449,-142.500000
9450,-142.500000
9451,-142.500000
9452,-142.500000
9453,-142.500000
9454,-142.500000
9455,-142.500000
9456,-142.500000
9457,-142.500000
9458,-142.500000
9459,-142.500000
9460,-142.500000
9461,-142.500000
9462,-142.500000
9463,-142.500000
9464,-142.500000
9465,-142.500000
9466,-142.500000
9467,-142.500000
9468,-142.500000
9469,-142.500000
9470,-142.500000
9471,-142.500000
9472,-142.500000
9473,-142.500000
9474,-142.500000
9475,-142.500000
9476,-142.500000
9477,-142.500000
9478,-142.500000
9479,-142.500000
9480,-142.500000
9481,-142.500000
9482,-142.500000
9483,-142.500000
9484,-142.500000
9485,-142.500000
9486,-142.500000
9487,-142.500000
9488,-142.500000
9489,-142.500000
9490,-142.500000
9491,-142.500000
9492,-142.500000
9493,-142.500000
9494,-142.500000
9495,-142.500000
9496,-142.500000
9497,-142.500000
9498,-142.500000
9499,-142.500000
9500,-142.500000
9501,-142.500000
9502,-142.500000
9503,-142.500000
9504,-142.500000
9505,-142.500000
9506,-142.500000
9507,-142.500000
9508,-142.500000
9509,-142.500000
9510,-142.500000
9511,-142.500000
9512,-142.500000
9513,-142.500000
9514,-142.500000
9515,-142.500000
9516,-142.500000
9517,-142.500000
9518,-142.500000
9519,-142.500000
9520,-142.500000
9521,-142.500000
9522,-142.500000
9523,-142.500000
9524,-142.500000
9525,-142.500000
9526,-142.500000
9527,-142.500000
9528,-142.500000
9529,-142.500000
9530,-142.500000
9531,-142.500000
9532,-142.500000
9533,-142.500000
9534,-142.500000
9535,-142.500000
9536,-142.500000
9537,-142.500000
9538,-142.500000
9539,-142.500000
9540,-142.500000
9541,-142.500000
9542,-142.500000
9543,-142.500000
9544,-142.500000
9545,-142.500000
9546,-142.500000
9547,-142.500000
9548,-142.500000
9549,-142.500000
9550,-142.500000
9551,-142.500000
9552,-142.500000
9553,-142.500000
9554,-142.500000
9555,-142.500000
9556,-142.500000
9557,-142.500000
9558,-142.500000
9559,-142.500000
9560,-142.500000
9561,-142.500000
9562,-142.500000
9563,-142.500000
9564,-142.500000
9565,-142.500000
9566,-142.500000
9567,-142.500000
9568,-142.500000
9569,-142.500000
9570,-142.500000
9571,-142.500000
9572,-142.500000
9573,-142.500000
9574,-142.500000
9575,-142.500000
9576,-142.500000
9577,-142.500000
9578,-142.500000
9579,-142.500000
9580,-142.500000
9581,-142.500000
9582,-142.500000
9583,-142.500000
9584,-142.500000
9585,-142.500000
9586,-142.500000
9587,-142.500000
9588,-142.500000
9589,-142.500000
9590,-142.500000
9591,-142.500000
9592,-142.500000
9593,-142.500000
9594,-142.500000
9595,-142.500000
9596,-142.500000
9597,-142.500000
9598,-142.500000
9599,-142.500000
9600,-142.500000
9601,-142.500000
9602,-142.500000
9603,-142.500000
9604,-142.500000
9605,-142.500000
9606,-142.500000
9607,-142.500000
9608,-142.500000
9609,-142.500000
9610,-142.500000
9611,-142.500000
9612,-142.500000
9613,-142.500000
9614,-142.500000
9615,-142.500000
9616,-142.500000
9617,-142.500000
9618,-142.500000
9619,-142.500000
9620,-142.500000
9621,-142.500000
9622,-142.500000
9623,-142.500000
9624,-142.500000
9625,-142.500000
9626,-142.500000
9627,-142.500000
9628,-142.500000
9629,-142.500000
9630,-142.500000
9631,-142.500000
9632,-142.500000
9633,-142.500000
9634,-142.500000
9635,-142.500000
9636,-142.500000
9637,-142.500000
9638,-142.500000
9639,-142.500000
9640,-142.500000
9641,-142.500000
9642,-142.500000
9643,-142.500000
9644,-142.500000
9645,-142.500000
9646,-142.500000
9647,-142.500000
9648,-142.500000
9649,-142.500000
9650,-142.500000
9651,-142.500000
9652,-142.500000
9653,-142.500000
9654,-142.500000
9655,-142.500000
9656,-142.500000
9657,-142.500000
9658,-142.500000
9659,-142.500000
9660,-142.500000
9661,-142.500000
9662,-142.500000
9663,-142.500000
9664,-142.500000
9665,-142.500000
9666,-142.500000
9667,-142.500000
9668,-142.500000
9669,-142.500000
9670,-142.500000
9671,-142.500000
9672,-142.500000
9673,-142.500000
9674,-142.500000
9675,-142.500000
9676,-142.500000
9677,-142.500000
9678,-142.500000
9679,-142.500000
9680,-142.500000
9681,-142.500000
9682,-142.500000
9683,-142.500000
9684,-142.500000
9685,-142.500000
9686,-142.500000
9687,-142.500000
9688,-142.500000
9689,-142.500000
9690,-142.500000
9691,-142.500000
9692,-142.500000
9693,-142.500000
9694,-142.500000
9695,-142.500000
9696,-142.500000
9697,-142.500000
9698,-142.500000
9699,-142.500000
9700,-142.500000
9701,-142.500000
9702,-142.500000
9703,-142.500000
9704,-142.500000
9705,-142.500000
9706,-142.500000
9707,-142.500000
9708,-142.500000
9709,-142.500000
9710,-142.500000
9711,-142.500000
9712,-142.500000
9713,-142.500000
9714,-142.500000
9715,-142.500000
9716,-142.500000
9717,-142.500000
9718,-142.500000
9719,-142.500000
9720,-142.500000
9721,-142.500000
9722,-142.500000
9723,-142.500000
9724,-142.500000
9725,-142.500000
9726,-142.500000
9727,-142.500000
9728,-142.500000
9729,-142.500000
9730,-142.500000
9731,-142.500000
9732,-142.500000
9733,-142.500000
9734,-142.500000
9735,-142.500000
9736,-142.500000
9737,-142.500000
9738,-142.500000
9739,-142.500000
9740,-142.500000
9741,-142.500000
9742,-142.500000
9743,-142.500000
9744,-142.500000
9745,-142.500000
9746,-142.500000
9747,-142.500000
9748,-142.500000
9749,-142.500000
9750,-142.500000
9751,-142.500000
9752,-142.500000
9753,-142.500000
9754,-142.500000
9755,-142.500000
9756,-142.500000
9757,-142.500000
9758,-142.500000
9759,-142.500000
9760,-142.500000
9761,-142.500000
9762,-142.500000
9763,-142.500000
9764,-142.500000
9765,-142.500000
9766,-142.500000
9767,-142.500000
9768,-142.500000
9769,-142.500000
9770,-142.500000
9771,-142.500000
9772,-142.500000
9773,-142.500000
9774,-142.500000
9775,-142.500000
9776,-142.500000
9777,-142.500000
9778,-142.500000
9779,-142.500000
9780,-142.500000
9781,-142.500000
9782,-142.500000
9783,-142.500000
9784,-142.500000
9785,-142.500000
9786,-142.500000
9787,-142.500000
9788,-142.500000
9789,-142.500000
9790,-142.500000
9791,-142.500000
9792,-142.500000
9793,-142.500000
9794,-142.500000
9795,-142.500000
9796,-142.500000
9797,-142.500000
9798,-142.500000
9799,-142.500000
9800,-142.500000
9801,-142.500000
9802,-142.500000
9803,-142.500000
9804,-142.500000
9805,-142.500000
9806,-142.500000
9807,-142.500000
9808,-142.500000
9809,-142.500000
9810,-142.500000
9811,-142.500000
9812,-142.500000
9813,-142.500000
9814,-142.500000
9815,-142.500000
9816,-142.500000
9817,-142.500000
9818,-142.500000
9819,-142.500000
9820,-142.500000
9821,-142.500000
9822,-142.500000
9823,-142.500000
9824,-142.500000
9825,-142.500000
9826,-142.500000
9827,-142.500000
9828,-142.500000
9829,-142.500000
9830,-142.500000
9831,-142.500000
9832,-142.500000
9833,-142.500000
9834,-142.500000
9835,-142.500000
9836,-142.500000
9837,-142.500000
9838,-142.500000
9839,-142.500000
9840,-142.500000
9841,-142.500000
9842,-142.500000
9843,-142.500000
9844,-142.500000
9845,-142.500000
9846,-142.500000
9847,-142.500000
9848,-142.500000
9849,-142.500000
9850,-142.500000
9851,-48.750000
9852,-142.500000
9853,-142.500000
9854,-142.500000
9855,-142.500000
9856,-142.500000
9857,-142.500000
9858,-142.500000
9859,-142.500000
9860,-142.500000
9861,-142.500000
9862,-142.500000
9863,-142.500000
9864,-142.500000
9865,-142.500000
9866,-142.500000
9867,-142.500000
9868,-142.500000
9869,-142.500000
9870,-142.500000
9871,-142.500000
9872,-142.500000
9873,-142.500000
9874,-142.500000
9875,-142.500000
9876,-142.500000
9877,-142.500000
9878,-142.500000
9879,-142.500000
9880,-142.500000
9881,-142.500000
9882,-142.500000
9883,-142.500000
9884,-142.500000
9885,-142.500000
9886,-142.500000
9887,-142.500000
9888,-142.500000
9889,-142.500000
9890,-142.500000
9891,-142.500000
9892,-142.500000
9893,-142.500000
9894,-142.500000
9895,-142.500000
9896,-142.500000
9897,-142.500000
9898,-142.500000
9899,-142.500000
9900,-142.500000
9901,-142.500000
9902,-142.500000
9903,-142.500000
9904,-142.500000
9905,-142.500000
9906,-142.500000
9907,-142.500000
9908,-142.500000
9909,-142.500000
9910,-142.500000
9911,-142.500000
9912,-142.500000
9913,-142.500000
9914,-142.500000
9915,-142.500000
9916,-142.500000
9917,-142.500000
9918,-142.500000
9919,-142.500000
9920,-142.500000
9921,-142.500000
9922,-142.500000
9923,-142.500000
9924,-142.500000
9925,-48.750000
9926,-142.500000
9927,-142.500000
9928,-142.500000
9929,-142.500000
9930,-142.500000
9931,-142.500000
9932,-142.500000
9933,-142.500000
9934,-142.500000
9935,-142.500000
9936,-142.500000
9937,-142.500000
9938,-142.500000
9939,-142.500000
9940,-142.500000
9941,-142.500000
9942,-142.500000
9943,-142.500000
9944,-142.500000
9945,-142.500000
9946,-142.500000
9947,-142.500000
9948,-142.500000
9949,-142.500000
9950,-142.500000
9951,-142.500000
9952,-142.500000
9953,-142.500000
9954,-142.500000
9955,-142.500000
9956,-142.500000
9957,-142.500000
9958,-142.500000
9959,-142.500000
9960,-142.500000
9961,-142.500000
9962,-142.500000
9963,-142.500000
9964,-142.500000
9965,-142.500000
9966,-142.500000
9967,-142.500000
9968,-142.500000
9969,-142.500000
9970,-142.500000
9971,-142.500000
9972,-142.500000
9973,-142.500000
9974,-142.500000
9975,-142.500000
9976,-142.500000
9977,-142.500000
9978,-142.500000
9979,-142.500000
9980,-142.500000
9981,-142.500000
9982,-142.500000
9983,-142.500000
9984,-142.500000
9985,-142.500000
9986,-142.500000
9987,-142.500000
9988,-142.500000
9989,-142.500000
9990,-142.500000
9991,-142.500000
9992,-142.500000
9993,-142.500000
9994,-142.500000
9995,-142.500000
9996,-142.500000
9997,-142.500000
9998,-142.500000
9999,-142.500000
10000,-142.500000
